IGOR // wavelength CuKa
WAVES/O wave0, wave1, sqrt_of_wave1
BEGIN
  4.50    2717   52.12
  4.51    2764   52.57
  4.52    2739   52.34
  4.53    2740   52.35
  4.54    2649   51.47
  4.55    2719   52.14
  4.56    2741   52.35
  4.57    2899   53.84
  4.58    2871   53.58
  4.59    2736   52.31
  4.60    2779   52.72
  4.61    2763   52.56
  4.62    2738   52.33
  4.63    2745   52.39
  4.64    2787   52.79
  4.65    2681   51.78
  4.66    2839   53.28
  4.67    2828   53.18
  4.68    2788   52.80
  4.69    2715   52.11
  4.70    2747   52.41
  4.71    2724   52.19
  4.72    2763   52.56
  4.73    2786   52.78
  4.74    2738   52.33
  4.75    2699   51.95
  4.76    2743   52.37
  4.77    2750   52.44
  4.78    2760   52.54
  4.79    2810   53.01
  4.80    2800   52.92
  4.81    2722   52.17
  4.82    2738   52.33
  4.83    2716   52.12
  4.84    2791   52.83
  4.85    2715   52.11
  4.86    2827   53.17
  4.87    2743   52.37
  4.88    2712   52.08
  4.89    2667   51.64
  4.90    2799   52.91
  4.91    2758   52.52
  4.92    2810   53.01
  4.93    2735   52.30
  4.94    2765   52.58
  4.95    2736   52.31
  4.96    2788   52.80
  4.97    2799   52.91
  4.98    2751   52.45
  4.99    2666   51.63
  5.00    2759   52.53
  5.01    2797   52.89
  5.02    2788   52.80
  5.03    2797   52.89
  5.04    2662   51.59
  5.05    2802   52.93
  5.06    2778   52.71
  5.07    2740   52.35
  5.08    2806   52.97
  5.09    2689   51.86
  5.10    2754   52.48
  5.11    2698   51.94
  5.12    2665   51.62
  5.13    2747   52.41
  5.14    2786   52.78
  5.15    2778   52.71
  5.16    2772   52.65
  5.17    2703   51.99
  5.18    2789   52.81
  5.19    2816   53.07
  5.20    2756   52.50
  5.21    2808   52.99
  5.22    2709   52.05
  5.23    2842   53.31
  5.24    2713   52.09
  5.25    2704   52.00
  5.26    2750   52.44
  5.27    2713   52.09
  5.28    2777   52.70
  5.29    2852   53.40
  5.30    2676   51.73
  5.31    2693   51.89
  5.32    2845   53.34
  5.33    2671   51.68
  5.34    2746   52.40
  5.35    2805   52.96
  5.36    2803   52.94
  5.37    2756   52.50
  5.38    2792   52.84
  5.39    2717   52.12
  5.40    2893   53.79
  5.41    2747   52.41
  5.42    2733   52.28
  5.43    2686   51.83
  5.44    2724   52.19
  5.45    2810   53.01
  5.46    2800   52.92
  5.47    2776   52.69
  5.48    2679   51.76
  5.49    2808   52.99
  5.50    2730   52.25
  5.51    2773   52.66
  5.52    2733   52.28
  5.53    2773   52.66
  5.54    2772   52.65
  5.55    2704   52.00
  5.56    2752   52.46
  5.57    2777   52.70
  5.58    2754   52.48
  5.59    2732   52.27
  5.60    2767   52.60
  5.61    2795   52.87
  5.62    2640   51.38
  5.63    2739   52.34
  5.64    2721   52.16
  5.65    2747   52.41
  5.66    2761   52.55
  5.67    2737   52.32
  5.68    2708   52.04
  5.69    2731   52.26
  5.70    2749   52.43
  5.71    2841   53.30
  5.72    2748   52.42
  5.73    2834   53.24
  5.74    2747   52.41
  5.75    2704   52.00
  5.76    2626   51.24
  5.77    2748   52.42
  5.78    2723   52.18
  5.79    2689   51.86
  5.80    2710   52.06
  5.81    2797   52.89
  5.82    2724   52.19
  5.83    2765   52.58
  5.84    2788   52.80
  5.85    2753   52.47
  5.86    2815   53.06
  5.87    2778   52.71
  5.88    2737   52.32
  5.89    2745   52.39
  5.90    2770   52.63
  5.91    2766   52.59
  5.92    2795   52.87
  5.93    2761   52.55
  5.94    2742   52.36
  5.95    2734   52.29
  5.96    2790   52.82
  5.97    2737   52.32
  5.98    2730   52.25
  5.99    2750   52.44
  6.00    2709   52.05
  6.01    2799   52.91
  6.02    2750   52.44
  6.03    2749   52.43
  6.04    2714   52.10
  6.05    2778   52.71
  6.06    2813   53.04
  6.07    2660   51.58
  6.08    2656   51.54
  6.09    2728   52.23
  6.10    2689   51.86
  6.11    2684   51.81
  6.12    2667   51.64
  6.13    2718   52.13
  6.14    2715   52.11
  6.15    2756   52.50
  6.16    2644   51.42
  6.17    2783   52.75
  6.18    2674   51.71
  6.19    2692   51.88
  6.20    2694   51.90
  6.21    2742   52.36
  6.22    2731   52.26
  6.23    2766   52.59
  6.24    2654   51.52
  6.25    2876   53.63
  6.26    2723   52.18
  6.27    2746   52.40
  6.28    2638   51.36
  6.29    2767   52.60
  6.30    2788   52.80
  6.31    2725   52.20
  6.32    2697   51.93
  6.33    2714   52.10
  6.34    2673   51.70
  6.35    2816   53.07
  6.36    2810   53.01
  6.37    2710   52.06
  6.38    2715   52.11
  6.39    2735   52.30
  6.40    2708   52.04
  6.41    2759   52.53
  6.42    2702   51.98
  6.43    2695   51.91
  6.44    2770   52.63
  6.45    2673   51.70
  6.46    2731   52.26
  6.47    2706   52.02
  6.48    2729   52.24
  6.49    2679   51.76
  6.50    2704   52.00
  6.51    2886   53.72
  6.52    2736   52.31
  6.53    2783   52.75
  6.54    2712   52.08
  6.55    2637   51.35
  6.56    2795   52.87
  6.57    2715   52.11
  6.58    2734   52.29
  6.59    2704   52.00
  6.60    2744   52.38
  6.61    2774   52.67
  6.62    2698   51.94
  6.63    2739   52.34
  6.64    2821   53.11
  6.65    2694   51.90
  6.66    2630   51.28
  6.67    2740   52.35
  6.68    2715   52.11
  6.69    2757   52.51
  6.70    2711   52.07
  6.71    2747   52.41
  6.72    2824   53.14
  6.73    2839   53.28
  6.74    2760   52.54
  6.75    2715   52.11
  6.76    2755   52.49
  6.77    2626   51.24
  6.78    2702   51.98
  6.79    2785   52.77
  6.80    2789   52.81
  6.81    2723   52.18
  6.82    2680   51.77
  6.83    2739   52.34
  6.84    2640   51.38
  6.85    2706   52.02
  6.86    2781   52.74
  6.87    2785   52.77
  6.88    2606   51.05
  6.89    2639   51.37
  6.90    2671   51.68
  6.91    2645   51.43
  6.92    2757   52.51
  6.93    2669   51.66
  6.94    2660   51.58
  6.95    2670   51.67
  6.96    2718   52.13
  6.97    2698   51.94
  6.98    2739   52.34
  6.99    2661   51.58
  7.00    2764   52.57
  7.01    2740   52.35
  7.02    2639   51.37
  7.03    2772   52.65
  7.04    2738   52.33
  7.05    2701   51.97
  7.06    2634   51.32
  7.07    2630   51.28
  7.08    2684   51.81
  7.09    2719   52.14
  7.10    2700   51.96
  7.11    2728   52.23
  7.12    2766   52.59
  7.13    2703   51.99
  7.14    2716   52.12
  7.15    2641   51.39
  7.16    2769   52.62
  7.17    2789   52.81
  7.18    2708   52.04
  7.19    2707   52.03
  7.20    2662   51.59
  7.21    2615   51.14
  7.22    2790   52.82
  7.23    2669   51.66
  7.24    2739   52.34
  7.25    2691   51.87
  7.26    2737   52.32
  7.27    2641   51.39
  7.28    2664   51.61
  7.29    2670   51.67
  7.30    2663   51.60
  7.31    2610   51.09
  7.32    2712   52.08
  7.33    2656   51.54
  7.34    2756   52.50
  7.35    2632   51.30
  7.36    2815   53.06
  7.37    2644   51.42
  7.38    2723   52.18
  7.39    2696   51.92
  7.40    2699   51.95
  7.41    2726   52.21
  7.42    2720   52.15
  7.43    2749   52.43
  7.44    2629   51.27
  7.45    2701   51.97
  7.46    2753   52.47
  7.47    2695   51.91
  7.48    2628   51.26
  7.49    2687   51.84
  7.50    2682   51.79
  7.51    2775   52.68
  7.52    2673   51.70
  7.53    2640   51.38
  7.54    2740   52.35
  7.55    2711   52.07
  7.56    2666   51.63
  7.57    2656   51.54
  7.58    2657   51.55
  7.59    2709   52.05
  7.60    2691   51.87
  7.61    2852   53.40
  7.62    2664   51.61
  7.63    2650   51.48
  7.64    2700   51.96
  7.65    2738   52.33
  7.66    2648   51.46
  7.67    2615   51.14
  7.68    2696   51.92
  7.69    2726   52.21
  7.70    2697   51.93
  7.71    2669   51.66
  7.72    2645   51.43
  7.73    2679   51.76
  7.74    2725   52.20
  7.75    2625   51.23
  7.76    2653   51.51
  7.77    2759   52.53
  7.78    2569   50.69
  7.79    2619   51.18
  7.80    2650   51.48
  7.81    2669   51.66
  7.82    2652   51.50
  7.83    2647   51.45
  7.84    2685   51.82
  7.85    2749   52.43
  7.86    2639   51.37
  7.87    2606   51.05
  7.88    2662   51.59
  7.89    2672   51.69
  7.90    2635   51.33
  7.91    2637   51.35
  7.92    2690   51.87
  7.93    2706   52.02
  7.94    2743   52.37
  7.95    2750   52.44
  7.96    2688   51.85
  7.97    2581   50.80
  7.98    2629   51.27
  7.99    2654   51.52
  8.00    2681   51.78
  8.01    2614   51.13
  8.02    2643   51.41
  8.03    2765   52.58
  8.04    2681   51.78
  8.05    2735   52.30
  8.06    2675   51.72
  8.07    2504   50.04
  8.08    2636   51.34
  8.09    2623   51.22
  8.10    2767   52.60
  8.11    2604   51.03
  8.12    2668   51.65
  8.13    2643   51.41
  8.14    2815   53.06
  8.15    2489   49.89
  8.16    2588   50.87
  8.17    2726   52.21
  8.18    2660   51.58
  8.19    2591   50.90
  8.20    2679   51.76
  8.21    2608   51.07
  8.22    2651   51.49
  8.23    2587   50.86
  8.24    2670   51.67
  8.25    2687   51.84
  8.26    2616   51.15
  8.27    2604   51.03
  8.28    2626   51.24
  8.29    2687   51.84
  8.30    2690   51.87
  8.31    2629   51.27
  8.32    2612   51.11
  8.33    2647   51.45
  8.34    2609   51.08
  8.35    2744   52.38
  8.36    2580   50.79
  8.37    2655   51.53
  8.38    2640   51.38
  8.39    2739   52.34
  8.40    2653   51.51
  8.41    2548   50.48
  8.42    2665   51.62
  8.43    2693   51.89
  8.44    2597   50.96
  8.45    2696   51.92
  8.46    2664   51.61
  8.47    2663   51.60
  8.48    2612   51.11
  8.49    2595   50.94
  8.50    2594   50.93
  8.51    2641   51.39
  8.52    2678   51.75
  8.53    2587   50.86
  8.54    2550   50.50
  8.55    2663   51.60
  8.56    2615   51.14
  8.57    2601   51.00
  8.58    2609   51.08
  8.59    2574   50.73
  8.60    2648   51.46
  8.61    2613   51.12
  8.62    2637   51.35
  8.63    2535   50.35
  8.64    2571   50.71
  8.65    2688   51.85
  8.66    2603   51.02
  8.67    2675   51.72
  8.68    2641   51.39
  8.69    2617   51.16
  8.70    2640   51.38
  8.71    2701   51.97
  8.72    2622   51.21
  8.73    2633   51.31
  8.74    2643   51.41
  8.75    2542   50.42
  8.76    2685   51.82
  8.77    2696   51.92
  8.78    2628   51.26
  8.79    2633   51.31
  8.80    2687   51.84
  8.81    2668   51.65
  8.82    2616   51.15
  8.83    2635   51.33
  8.84    2574   50.73
  8.85    2578   50.77
  8.86    2688   51.85
  8.87    2597   50.96
  8.88    2565   50.65
  8.89    2712   52.08
  8.90    2582   50.81
  8.91    2642   51.40
  8.92    2640   51.38
  8.93    2587   50.86
  8.94    2586   50.85
  8.95    2625   51.23
  8.96    2621   51.20
  8.97    2625   51.23
  8.98    2577   50.76
  8.99    2548   50.48
  9.00    2658   51.56
  9.01    2582   50.81
  9.02    2736   52.31
  9.03    2623   51.22
  9.04    2550   50.50
  9.05    2623   51.22
  9.06    2635   51.33
  9.07    2554   50.54
  9.08    2680   51.77
  9.09    2600   50.99
  9.10    2643   51.41
  9.11    2595   50.94
  9.12    2569   50.69
  9.13    2611   51.10
  9.14    2582   50.81
  9.15    2575   50.74
  9.16    2531   50.31
  9.17    2595   50.94
  9.18    2555   50.55
  9.19    2538   50.38
  9.20    2567   50.67
  9.21    2624   51.22
  9.22    2613   51.12
  9.23    2558   50.58
  9.24    2600   50.99
  9.25    2682   51.79
  9.26    2659   51.57
  9.27    2641   51.39
  9.28    2674   51.71
  9.29    2739   52.34
  9.30    2984   54.63
  9.31    2984   54.63
  9.32    3417   58.46
  9.33    4105   64.07
  9.34    5169   71.90
  9.35    6217   78.85
  9.36    7357   85.77
  9.37    8104   90.02
  9.38    8289   91.04
  9.39    8138   90.21
  9.40    7362   85.80
  9.41    6225   78.90
  9.42    5010   70.78
  9.43    4170   64.58
  9.44    3492   59.09
  9.45    3085   55.54
  9.46    2880   53.67
  9.47    2770   52.63
  9.48    2660   51.58
  9.49    2690   51.87
  9.50    2679   51.76
  9.51    2645   51.43
  9.52    2499   49.99
  9.53    2620   51.19
  9.54    2671   51.68
  9.55    2519   50.19
  9.56    2621   51.20
  9.57    2563   50.63
  9.58    2585   50.84
  9.59    2592   50.91
  9.60    2591   50.90
  9.61    2560   50.60
  9.62    2551   50.51
  9.63    2522   50.22
  9.64    2482   49.82
  9.65    2555   50.55
  9.66    2614   51.13
  9.67    2533   50.33
  9.68    2587   50.86
  9.69    2575   50.74
  9.70    2562   50.62
  9.71    2505   50.05
  9.72    2484   49.84
  9.73    2451   49.51
  9.74    2522   50.22
  9.75    2572   50.71
  9.76    2444   49.44
  9.77    2640   51.38
  9.78    2558   50.58
  9.79    2591   50.90
  9.80    2517   50.17
  9.81    2575   50.74
  9.82    2491   49.91
  9.83    2506   50.06
  9.84    2632   51.30
  9.85    2542   50.42
  9.86    2449   49.49
  9.87    2466   49.66
  9.88    2479   49.79
  9.89    2542   50.42
  9.90    2566   50.66
  9.91    2568   50.68
  9.92    2585   50.84
  9.93    2516   50.16
  9.94    2581   50.80
  9.95    2682   51.79
  9.96    2682   51.79
  9.97    2707   52.03
  9.98    2880   53.67
  9.99    3033   55.07
 10.00    3259   57.09
 10.01    3404   58.34
 10.02    3432   58.58
 10.03    3378   58.12
 10.04    3282   57.29
 10.05    2971   54.51
 10.06    2889   53.75
 10.07    2760   52.54
 10.08    2649   51.47
 10.09    2672   51.69
 10.10    2595   50.94
 10.11    2560   50.60
 10.12    2441   49.41
 10.13    2538   50.38
 10.14    2568   50.68
 10.15    2548   50.48
 10.16    2412   49.11
 10.17    2463   49.63
 10.18    2561   50.61
 10.19    2508   50.08
 10.20    2489   49.89
 10.21    2485   49.85
 10.22    2464   49.64
 10.23    2564   50.64
 10.24    2528   50.28
 10.25    2536   50.36
 10.26    2442   49.42
 10.27    2555   50.55
 10.28    2660   51.58
 10.29    2501   50.01
 10.30    2466   49.66
 10.31    2467   49.67
 10.32    2482   49.82
 10.33    2468   49.68
 10.34    2513   50.13
 10.35    2437   49.37
 10.36    2451   49.51
 10.37    2434   49.34
 10.38    2542   50.42
 10.39    2498   49.98
 10.40    2468   49.68
 10.41    2425   49.24
 10.42    2418   49.17
 10.43    2427   49.26
 10.44    2529   50.29
 10.45    2503   50.03
 10.46    2517   50.17
 10.47    2497   49.97
 10.48    2558   50.58
 10.49    2521   50.21
 10.50    2408   49.07
 10.51    2506   50.06
 10.52    2401   49.00
 10.53    2494   49.94
 10.54    2452   49.52
 10.55    2460   49.60
 10.56    2420   49.19
 10.57    2567   50.67
 10.58    2509   50.09
 10.59    2532   50.32
 10.60    2444   49.44
 10.61    2400   48.99
 10.62    2549   50.49
 10.63    2517   50.17
 10.64    2424   49.23
 10.65    2452   49.52
 10.66    2489   49.89
 10.67    2428   49.27
 10.68    2468   49.68
 10.69    2487   49.87
 10.70    2425   49.24
 10.71    2427   49.26
 10.72    2459   49.59
 10.73    2429   49.28
 10.74    2423   49.22
 10.75    2471   49.71
 10.76    2361   48.59
 10.77    2495   49.95
 10.78    2498   49.98
 10.79    2408   49.07
 10.80    2444   49.44
 10.81    2406   49.05
 10.82    2410   49.09
 10.83    2319   48.16
 10.84    2360   48.58
 10.85    2397   48.96
 10.86    2562   50.62
 10.87    2404   49.03
 10.88    2379   48.77
 10.89    2383   48.82
 10.90    2428   49.27
 10.91    2384   48.83
 10.92    2456   49.56
 10.93    2516   50.16
 10.94    2467   49.67
 10.95    2421   49.20
 10.96    2481   49.81
 10.97    2459   49.59
 10.98    2360   48.58
 10.99    2402   49.01
 11.00    2407   49.06
 11.01    2385   48.84
 11.02    2428   49.27
 11.03    2387   48.86
 11.04    2434   49.34
 11.05    2456   49.56
 11.06    2488   49.88
 11.07    2415   49.14
 11.08    2319   48.16
 11.09    2432   49.32
 11.10    2469   49.69
 11.11    2366   48.64
 11.12    2329   48.26
 11.13    2394   48.93
 11.14    2369   48.67
 11.15    2407   49.06
 11.16    2460   49.60
 11.17    2413   49.12
 11.18    2423   49.22
 11.19    2264   47.58
 11.20    2357   48.55
 11.21    2449   49.49
 11.22    2423   49.22
 11.23    2402   49.01
 11.24    2342   48.39
 11.25    2358   48.56
 11.26    2454   49.54
 11.27    2328   48.25
 11.28    2455   49.55
 11.29    2387   48.86
 11.30    2426   49.25
 11.31    2403   49.02
 11.32    2380   48.79
 11.33    2393   48.92
 11.34    2271   47.66
 11.35    2380   48.79
 11.36    2505   50.05
 11.37    2398   48.97
 11.38    2394   48.93
 11.39    2376   48.74
 11.40    2412   49.11
 11.41    2349   48.47
 11.42    2335   48.32
 11.43    2385   48.84
 11.44    2346   48.44
 11.45    2409   49.08
 11.46    2386   48.85
 11.47    2507   50.07
 11.48    2338   48.35
 11.49    2308   48.04
 11.50    2380   48.79
 11.51    2369   48.67
 11.52    2388   48.87
 11.53    2434   49.34
 11.54    2297   47.93
 11.55    2303   47.99
 11.56    2350   48.48
 11.57    2404   49.03
 11.58    2345   48.43
 11.59    2417   49.16
 11.60    2315   48.11
 11.61    2388   48.87
 11.62    2426   49.25
 11.63    2442   49.42
 11.64    2438   49.38
 11.65    2365   48.63
 11.66    2397   48.96
 11.67    2428   49.27
 11.68    2350   48.48
 11.69    2346   48.44
 11.70    2332   48.29
 11.71    2313   48.09
 11.72    2343   48.40
 11.73    2298   47.94
 11.74    2330   48.27
 11.75    2411   49.10
 11.76    2320   48.17
 11.77    2285   47.80
 11.78    2327   48.24
 11.79    2296   47.92
 11.80    2389   48.88
 11.81    2311   48.07
 11.82    2275   47.70
 11.83    2355   48.53
 11.84    2379   48.77
 11.85    2277   47.72
 11.86    2354   48.52
 11.87    2347   48.45
 11.88    2320   48.17
 11.89    2354   48.52
 11.90    2324   48.21
 11.91    2296   47.92
 11.92    2327   48.24
 11.93    2301   47.97
 11.94    2419   49.18
 11.95    2312   48.08
 11.96    2288   47.83
 11.97    2276   47.71
 11.98    2286   47.81
 11.99    2332   48.29
 12.00    2322   48.19
 12.01    2404   49.03
 12.02    2356   48.54
 12.03    2257   47.51
 12.04    2216   47.07
 12.05    2326   48.23
 12.06    2307   48.03
 12.07    2335   48.32
 12.08    2276   47.71
 12.09    2270   47.64
 12.10    2292   47.87
 12.11    2232   47.24
 12.12    2299   47.95
 12.13    2378   48.76
 12.14    2290   47.85
 12.15    2282   47.77
 12.16    2343   48.40
 12.17    2285   47.80
 12.18    2257   47.51
 12.19    2253   47.47
 12.20    2229   47.21
 12.21    2292   47.87
 12.22    2194   46.84
 12.23    2315   48.11
 12.24    2369   48.67
 12.25    2312   48.08
 12.26    2279   47.74
 12.27    2334   48.31
 12.28    2244   47.37
 12.29    2337   48.34
 12.30    2294   47.90
 12.31    2222   47.14
 12.32    2302   47.98
 12.33    2361   48.59
 12.34    2286   47.81
 12.35    2360   48.58
 12.36    2340   48.37
 12.37    2338   48.35
 12.38    2338   48.35
 12.39    2252   47.46
 12.40    2273   47.68
 12.41    2236   47.29
 12.42    2315   48.11
 12.43    2312   48.08
 12.44    2266   47.60
 12.45    2298   47.94
 12.46    2318   48.15
 12.47    2288   47.83
 12.48    2235   47.28
 12.49    2228   47.20
 12.50    2331   48.28
 12.51    2243   47.36
 12.52    2272   47.67
 12.53    2239   47.32
 12.54    2322   48.19
 12.55    2247   47.40
 12.56    2353   48.51
 12.57    2255   47.49
 12.58    2249   47.42
 12.59    2187   46.77
 12.60    2267   47.61
 12.61    2289   47.84
 12.62    2216   47.07
 12.63    2272   47.67
 12.64    2278   47.73
 12.65    2192   46.82
 12.66    2333   48.30
 12.67    2342   48.39
 12.68    2233   47.25
 12.69    2315   48.11
 12.70    2266   47.60
 12.71    2267   47.61
 12.72    2287   47.82
 12.73    2359   48.57
 12.74    2274   47.69
 12.75    2316   48.12
 12.76    2265   47.59
 12.77    2340   48.37
 12.78    2336   48.33
 12.79    2349   48.47
 12.80    2464   49.64
 12.81    2467   49.67
 12.82    2755   52.49
 12.83    2887   53.73
 12.84    3534   59.45
 12.85    4275   65.38
 12.86    6313   79.45
 12.87    9025   95.00
 12.88   11916  109.16
 12.89   14721  121.33
 12.90   17348  131.71
 12.91   19000  137.84
 12.92   19118  138.27
 12.93   18177  134.82
 12.94   15502  124.51
 12.95   12896  113.56
 12.96    9721   98.60
 12.97    7325   85.59
 12.98    5429   73.68
 12.99    4044   63.59
 13.00    3152   56.14
 13.01    2759   52.53
 13.02    2560   50.60
 13.03    2343   48.40
 13.04    2267   47.61
 13.05    2310   48.06
 13.06    2275   47.70
 13.07    2207   46.98
 13.08    2238   47.31
 13.09    2224   47.16
 13.10    2278   47.73
 13.11    2247   47.40
 13.12    2123   46.08
 13.13    2239   47.32
 13.14    2220   47.12
 13.15    2219   47.11
 13.16    2122   46.07
 13.17    2226   47.18
 13.18    2203   46.94
 13.19    2165   46.53
 13.20    2236   47.29
 13.21    2168   46.56
 13.22    2157   46.44
 13.23    2192   46.82
 13.24    2223   47.15
 13.25    2300   47.96
 13.26    2186   46.75
 13.27    2146   46.32
 13.28    2134   46.20
 13.29    2182   46.71
 13.30    2097   45.79
 13.31    2153   46.40
 13.32    2194   46.84
 13.33    2125   46.10
 13.34    2137   46.23
 13.35    2052   45.30
 13.36    2172   46.60
 13.37    2141   46.27
 13.38    2156   46.43
 13.39    2086   45.67
 13.40    2151   46.38
 13.41    2152   46.39
 13.42    2129   46.14
 13.43    2085   45.66
 13.44    2276   47.71
 13.45    2244   47.37
 13.46    2253   47.47
 13.47    2276   47.71
 13.48    2399   48.98
 13.49    2348   48.46
 13.50    2513   50.13
 13.51    2480   49.80
 13.52    2422   49.21
 13.53    2357   48.55
 13.54    2326   48.23
 13.55    2205   46.96
 13.56    2211   47.02
 13.57    2067   45.46
 13.58    2088   45.69
 13.59    2096   45.78
 13.60    2075   45.55
 13.61    2019   44.93
 13.62    2108   45.91
 13.63    2094   45.76
 13.64    2149   46.36
 13.65    2101   45.84
 13.66    2020   44.94
 13.67    2118   46.02
 13.68    2050   45.28
 13.69    2119   46.03
 13.70    2023   44.98
 13.71    2049   45.27
 13.72    2029   45.04
 13.73    2055   45.33
 13.74    2037   45.13
 13.75    2059   45.38
 13.76    1982   44.52
 13.77    2047   45.24
 13.78    2008   44.81
 13.79    2012   44.86
 13.80    2124   46.09
 13.81    2074   45.54
 13.82    2061   45.40
 13.83    1973   44.42
 13.84    2082   45.63
 13.85    2022   44.97
 13.86    1938   44.02
 13.87    2033   45.09
 13.88    2022   44.97
 13.89    1992   44.63
 13.90    2013   44.87
 13.91    2115   45.99
 13.92    2035   45.11
 13.93    2044   45.21
 13.94    2023   44.98
 13.95    2051   45.29
 13.96    2043   45.20
 13.97    1955   44.22
 13.98    2041   45.18
 13.99    2044   45.21
 14.00    2017   44.91
 14.01    2097   45.79
 14.02    2022   44.97
 14.03    1995   44.67
 14.04    2137   46.23
 14.05    2083   45.64
 14.06    2016   44.90
 14.07    2002   44.74
 14.08    1943   44.08
 14.09    1972   44.41
 14.10    2051   45.29
 14.11    2028   45.03
 14.12    1898   43.57
 14.13    2027   45.02
 14.14    2002   44.74
 14.15    1999   44.71
 14.16    2073   45.53
 14.17    2032   45.08
 14.18    2020   44.94
 14.19    2129   46.14
 14.20    2037   45.13
 14.21    1997   44.69
 14.22    2089   45.71
 14.23    1945   44.10
 14.24    2070   45.50
 14.25    2125   46.10
 14.26    2136   46.22
 14.27    2292   47.87
 14.28    2396   48.95
 14.29    2412   49.11
 14.30    2434   49.34
 14.31    2497   49.97
 14.32    2506   50.06
 14.33    2329   48.26
 14.34    2255   47.49
 14.35    2255   47.49
 14.36    2249   47.42
 14.37    2070   45.50
 14.38    2027   45.02
 14.39    2083   45.64
 14.40    2020   44.94
 14.41    2053   45.31
 14.42    2054   45.32
 14.43    2050   45.28
 14.44    1988   44.59
 14.45    2035   45.11
 14.46    2053   45.31
 14.47    2101   45.84
 14.48    2074   45.54
 14.49    2054   45.32
 14.50    2059   45.38
 14.51    2046   45.23
 14.52    2173   46.62
 14.53    2147   46.34
 14.54    2185   46.74
 14.55    2253   47.47
 14.56    2315   48.11
 14.57    2505   50.05
 14.58    2744   52.38
 14.59    2987   54.65
 14.60    3843   61.99
 14.61    5655   75.20
 14.62    8547   92.45
 14.63   12616  112.32
 14.64   17473  132.19
 14.65   22451  149.84
 14.66   27054  164.48
 14.67   29847  172.76
 14.68   31076  176.28
 14.69   29697  172.33
 14.70   26144  161.69
 14.71   21282  145.88
 14.72   16689  129.19
 14.73   12308  110.94
 14.74    9221   96.03
 14.75    6461   80.38
 14.76    4495   67.04
 14.77    3325   57.66
 14.78    2726   52.21
 14.79    2492   49.92
 14.80    2219   47.11
 14.81    2248   47.41
 14.82    2201   46.91
 14.83    2249   47.42
 14.84    2089   45.71
 14.85    2117   46.01
 14.86    2111   45.95
 14.87    2136   46.22
 14.88    2165   46.53
 14.89    2026   45.01
 14.90    2054   45.32
 14.91    2047   45.24
 14.92    2027   45.02
 14.93    1994   44.65
 14.94    1918   43.79
 14.95    2055   45.33
 14.96    2073   45.53
 14.97    1862   43.15
 14.98    1985   44.55
 14.99    1959   44.26
 15.00    1999   44.71
 15.01    1947   44.12
 15.02    2012   44.86
 15.03    1968   44.36
 15.04    1914   43.75
 15.05    1963   44.31
 15.06    1924   43.86
 15.07    1933   43.97
 15.08    1900   43.59
 15.09    1909   43.69
 15.10    1962   44.29
 15.11    2003   44.75
 15.12    1999   44.71
 15.13    1904   43.63
 15.14    1886   43.43
 15.15    1876   43.31
 15.16    2035   45.11
 15.17    1929   43.92
 15.18    1927   43.90
 15.19    1901   43.60
 15.20    1873   43.28
 15.21    1832   42.80
 15.22    1894   43.52
 15.23    1917   43.78
 15.24    1926   43.89
 15.25    1841   42.91
 15.26    1937   44.01
 15.27    1905   43.65
 15.28    1867   43.21
 15.29    1893   43.51
 15.30    1810   42.54
 15.31    1844   42.94
 15.32    1888   43.45
 15.33    1840   42.90
 15.34    1913   43.74
 15.35    1925   43.87
 15.36    2026   45.01
 15.37    1842   42.92
 15.38    1855   43.07
 15.39    1875   43.30
 15.40    1866   43.20
 15.41    1828   42.76
 15.42    1826   42.73
 15.43    1818   42.64
 15.44    1858   43.10
 15.45    1882   43.38
 15.46    1832   42.80
 15.47    1916   43.77
 15.48    1802   42.45
 15.49    1900   43.59
 15.50    1872   43.27
 15.51    1938   44.02
 15.52    1869   43.23
 15.53    1821   42.67
 15.54    1912   43.73
 15.55    1884   43.41
 15.56    1853   43.05
 15.57    1876   43.31
 15.58    1871   43.26
 15.59    1875   43.30
 15.60    1875   43.30
 15.61    1873   43.28
 15.62    1869   43.23
 15.63    1899   43.58
 15.64    1890   43.47
 15.65    1847   42.98
 15.66    1911   43.71
 15.67    1805   42.49
 15.68    1907   43.67
 15.69    1819   42.65
 15.70    1869   43.23
 15.71    1915   43.76
 15.72    1915   43.76
 15.73    1873   43.28
 15.74    1867   43.21
 15.75    1848   42.99
 15.76    1937   44.01
 15.77    1830   42.78
 15.78    1838   42.87
 15.79    1938   44.02
 15.80    1844   42.94
 15.81    1903   43.62
 15.82    1904   43.63
 15.83    1895   43.53
 15.84    1854   43.06
 15.85    1868   43.22
 15.86    1929   43.92
 15.87    1948   44.14
 15.88    1903   43.62
 15.89    1885   43.42
 15.90    1837   42.86
 15.91    1843   42.93
 15.92    1897   43.55
 15.93    1871   43.26
 15.94    1865   43.19
 15.95    1853   43.05
 15.96    1921   43.83
 15.97    1970   44.38
 15.98    1929   43.92
 15.99    1935   43.99
 16.00    2024   44.99
 16.01    2014   44.88
 16.02    1985   44.55
 16.03    2072   45.52
 16.04    1956   44.23
 16.05    1979   44.49
 16.06    2002   44.74
 16.07    1998   44.70
 16.08    2082   45.63
 16.09    1992   44.63
 16.10    2004   44.77
 16.11    1957   44.24
 16.12    2022   44.97
 16.13    2083   45.64
 16.14    2010   44.83
 16.15    2004   44.77
 16.16    2066   45.45
 16.17    2003   44.75
 16.18    2036   45.12
 16.19    2011   44.84
 16.20    2123   46.08
 16.21    2114   45.98
 16.22    2142   46.28
 16.23    2040   45.17
 16.24    2166   46.54
 16.25    2132   46.17
 16.26    2169   46.57
 16.27    2186   46.75
 16.28    2157   46.44
 16.29    2122   46.07
 16.30    2208   46.99
 16.31    2202   46.93
 16.32    2155   46.42
 16.33    2408   49.07
 16.34    2254   47.48
 16.35    2570   50.70
 16.36    2676   51.73
 16.37    2909   53.94
 16.38    3507   59.22
 16.39    4361   66.04
 16.40    6028   77.64
 16.41    9469   97.31
 16.42   14371  119.88
 16.43   20002  141.43
 16.44   26014  161.29
 16.45   31488  177.45
 16.46   35638  188.78
 16.47   37812  194.45
 16.48   37134  192.70
 16.49   34566  185.92
 16.50   30298  174.06
 16.51   24450  156.36
 16.52   19263  138.79
 16.53   15092  122.85
 16.54   10799  103.92
 16.55    7739   87.97
 16.56    5489   74.09
 16.57    4161   64.51
 16.58    3464   58.86
 16.59    3241   56.93
 16.60    3417   58.46
 16.61    3967   62.98
 16.62    4966   70.47
 16.63    6092   78.05
 16.64    7384   85.93
 16.65    8463   91.99
 16.66    9217   96.01
 16.67    9496   97.45
 16.68    9395   96.93
 16.69    9068   95.23
 16.70    8525   92.33
 16.71    7922   89.01
 16.72    7870   88.71
 16.73    8824   93.94
 16.74   11164  105.66
 16.75   15206  123.31
 16.76   20657  143.73
 16.77   26901  164.02
 16.78   31766  178.23
 16.79   35130  187.43
 16.80   36523  191.11
 16.81   35583  188.63
 16.82   32889  181.35
 16.83   27863  166.92
 16.84   22562  150.21
 16.85   18046  134.34
 16.86   13546  116.39
 16.87    9910   99.55
 16.88    6825   82.61
 16.89    4782   69.15
 16.90    3613   60.11
 16.91    2852   53.40
 16.92    2526   50.26
 16.93    2398   48.97
 16.94    2211   47.02
 16.95    2126   46.11
 16.96    2118   46.02
 16.97    2037   45.13
 16.98    2087   45.68
 16.99    1955   44.22
 17.00    1960   44.27
 17.01    1999   44.71
 17.02    1901   43.60
 17.03    1906   43.66
 17.04    1921   43.83
 17.05    1838   42.87
 17.06    1882   43.38
 17.07    1912   43.73
 17.08    1823   42.70
 17.09    1909   43.69
 17.10    1903   43.62
 17.11    1836   42.85
 17.12    1882   43.38
 17.13    1748   41.81
 17.14    1806   42.50
 17.15    1766   42.02
 17.16    1841   42.91
 17.17    1811   42.56
 17.18    1798   42.40
 17.19    1805   42.49
 17.20    1898   43.57
 17.21    1803   42.46
 17.22    1780   42.19
 17.23    1749   41.82
 17.24    1740   41.71
 17.25    1785   42.25
 17.26    1679   40.98
 17.27    1680   40.99
 17.28    1755   41.89
 17.29    1713   41.39
 17.30    1705   41.29
 17.31    1762   41.98
 17.32    1749   41.82
 17.33    1765   42.01
 17.34    1688   41.09
 17.35    1748   41.81
 17.36    1777   42.15
 17.37    1764   42.00
 17.38    1766   42.02
 17.39    1731   41.61
 17.40    1732   41.62
 17.41    1827   42.74
 17.42    1772   42.10
 17.43    1717   41.44
 17.44    1720   41.47
 17.45    1723   41.51
 17.46    1746   41.79
 17.47    1675   40.93
 17.48    1635   40.44
 17.49    1703   41.27
 17.50    1833   42.81
 17.51    1664   40.79
 17.52    1771   42.08
 17.53    1789   42.30
 17.54    1782   42.21
 17.55    1736   41.67
 17.56    1796   42.38
 17.57    1767   42.04
 17.58    1883   43.39
 17.59    1803   42.46
 17.60    1886   43.43
 17.61    1849   43.00
 17.62    1968   44.36
 17.63    1991   44.62
 17.64    2015   44.89
 17.65    2114   45.98
 17.66    2290   47.85
 17.67    2541   50.41
 17.68    3089   55.58
 17.69    4089   63.95
 17.70    5892   76.76
 17.71    8310   91.16
 17.72   11526  107.36
 17.73   15234  123.43
 17.74   18619  136.45
 17.75   20594  143.51
 17.76   22142  148.80
 17.77   22006  148.34
 17.78   20140  141.92
 17.79   18170  134.80
 17.80   15675  125.20
 17.81   12720  112.78
 17.82   10214  101.06
 17.83    7782   88.22
 17.84    6048   77.77
 17.85    4339   65.87
 17.86    3194   56.52
 17.87    2644   51.42
 17.88    2270   47.64
 17.89    2043   45.20
 17.90    2021   44.96
 17.91    1899   43.58
 17.92    1894   43.52
 17.93    1907   43.67
 17.94    1880   43.36
 17.95    1782   42.21
 17.96    1755   41.89
 17.97    1672   40.89
 17.98    1696   41.18
 17.99    1782   42.21
 18.00    1759   41.94
 18.01    1751   41.84
 18.02    1717   41.44
 18.03    1636   40.45
 18.04    1732   41.62
 18.05    1696   41.18
 18.06    1720   41.47
 18.07    1689   41.10
 18.08    1594   39.92
 18.09    1619   40.24
 18.10    1766   42.02
 18.11    1748   41.81
 18.12    1724   41.52
 18.13    1707   41.32
 18.14    1714   41.40
 18.15    1642   40.52
 18.16    1721   41.48
 18.17    1717   41.44
 18.18    1702   41.26
 18.19    1681   41.00
 18.20    1725   41.53
 18.21    1815   42.60
 18.22    1798   42.40
 18.23    1816   42.61
 18.24    1798   42.40
 18.25    1865   43.19
 18.26    1958   44.25
 18.27    2082   45.63
 18.28    2175   46.64
 18.29    2479   49.79
 18.30    2884   53.70
 18.31    4065   63.76
 18.32    5710   75.56
 18.33    8136   90.20
 18.34   11332  106.45
 18.35   14362  119.84
 18.36   17109  130.80
 18.37   18721  136.82
 18.38   19609  140.03
 18.39   19294  138.90
 18.40   17773  133.32
 18.41   15925  126.19
 18.42   13229  115.02
 18.43   10902  104.41
 18.44    8993   94.83
 18.45    6998   83.65
 18.46    5312   72.88
 18.47    3858   62.11
 18.48    2899   53.84
 18.49    2377   48.75
 18.50    2066   45.45
 18.51    1942   44.07
 18.52    1794   42.36
 18.53    1752   41.86
 18.54    1727   41.56
 18.55    1742   41.74
 18.56    1804   42.47
 18.57    1758   41.93
 18.58    1686   41.06
 18.59    1682   41.01
 18.60    1606   40.07
 18.61    1592   39.90
 18.62    1682   41.01
 18.63    1660   40.74
 18.64    1634   40.42
 18.65    1549   39.36
 18.66    1635   40.44
 18.67    1641   40.51
 18.68    1589   39.86
 18.69    1732   41.62
 18.70    1811   42.56
 18.71    1913   43.74
 18.72    2043   45.20
 18.73    2240   47.33
 18.74    2522   50.22
 18.75    2692   51.88
 18.76    2808   52.99
 18.77    3079   55.49
 18.78    3446   58.70
 18.79    3614   60.12
 18.80    3825   61.85
 18.81    3920   62.61
 18.82    4062   63.73
 18.83    3953   62.87
 18.84    3787   61.54
 18.85    3539   59.49
 18.86    3351   57.89
 18.87    2992   54.70
 18.88    2651   51.49
 18.89    2344   48.41
 18.90    2204   46.95
 18.91    1985   44.55
 18.92    1852   43.03
 18.93    1760   41.95
 18.94    1698   41.21
 18.95    1711   41.36
 18.96    1693   41.15
 18.97    1838   42.87
 18.98    2127   46.12
 18.99    2311   48.07
 19.00    2735   52.30
 19.01    3261   57.11
 19.02    3610   60.08
 19.03    4138   64.33
 19.04    4256   65.24
 19.05    4233   65.06
 19.06    4209   64.88
 19.07    3873   62.23
 19.08    3749   61.23
 19.09    3384   58.17
 19.10    3026   55.01
 19.11    2674   51.71
 19.12    2438   49.38
 19.13    2238   47.31
 19.14    2003   44.75
 19.15    1771   42.08
 19.16    1760   41.95
 19.17    1656   40.69
 19.18    1706   41.30
 19.19    1577   39.71
 19.20    1643   40.53
 19.21    1572   39.65
 19.22    1571   39.64
 19.23    1630   40.37
 19.24    1579   39.74
 19.25    1620   40.25
 19.26    1637   40.46
 19.27    1533   39.15
 19.28    1625   40.31
 19.29    1603   40.04
 19.30    1586   39.82
 19.31    1599   39.99
 19.32    1545   39.31
 19.33    1567   39.59
 19.34    1614   40.17
 19.35    1606   40.07
 19.36    1613   40.16
 19.37    1612   40.15
 19.38    1622   40.27
 19.39    1627   40.34
 19.40    1644   40.55
 19.41    1626   40.32
 19.42    1754   41.88
 19.43    1696   41.18
 19.44    1828   42.76
 19.45    1837   42.86
 19.46    1963   44.31
 19.47    2062   45.41
 19.48    2303   47.99
 19.49    2703   51.99
 19.50    3410   58.40
 19.51    4676   68.38
 19.52    6329   79.56
 19.53    8308   91.15
 19.54   10414  102.05
 19.55   12064  109.84
 19.56   14159  118.99
 19.57   16212  127.33
 19.58   18445  135.81
 19.59   20116  141.83
 19.60   22070  148.56
 19.61   22581  150.27
 19.62   22796  150.98
 19.63   21752  147.49
 19.64   20294  142.46
 19.65   18180  134.83
 19.66   15560  124.74
 19.67   13218  114.97
 19.68   11041  105.08
 19.69    8397   91.64
 19.70    6938   83.29
 19.71    5293   72.75
 19.72    4172   64.59
 19.73    3610   60.08
 19.74    3073   55.43
 19.75    3000   54.77
 19.76    3267   57.16
 19.77    4089   63.95
 19.78    5839   76.41
 19.79    8878   94.22
 19.80   13147  114.66
 19.81   17913  133.84
 19.82   22118  148.72
 19.83   25680  160.25
 19.84   26936  164.12
 19.85   27954  167.19
 19.86   26318  162.23
 19.87   24022  154.99
 19.88   21409  146.32
 19.89   18369  135.53
 19.90   15132  123.01
 19.91   12288  110.85
 19.92    9269   96.28
 19.93    6900   83.07
 19.94    4934   70.24
 19.95    3598   59.98
 19.96    2653   51.51
 19.97    2229   47.21
 19.98    2034   45.10
 19.99    1883   43.39
 20.00    1855   43.07
 20.01    1715   41.41
 20.02    1727   41.56
 20.03    1700   41.23
 20.04    1690   41.11
 20.05    1684   41.04
 20.06    1759   41.94
 20.07    1789   42.30
 20.08    1873   43.28
 20.09    1952   44.18
 20.10    2087   45.68
 20.11    2051   45.29
 20.12    2126   46.11
 20.13    2025   45.00
 20.14    2073   45.53
 20.15    2049   45.27
 20.16    1929   43.92
 20.17    1868   43.22
 20.18    1843   42.93
 20.19    1797   42.39
 20.20    1712   41.38
 20.21    1623   40.29
 20.22    1528   39.09
 20.23    1488   38.57
 20.24    1536   39.19
 20.25    1523   39.03
 20.26    1537   39.20
 20.27    1458   38.18
 20.28    1441   37.96
 20.29    1493   38.64
 20.30    1403   37.46
 20.31    1500   38.73
 20.32    1529   39.10
 20.33    1503   38.77
 20.34    1460   38.21
 20.35    1539   39.23
 20.36    1538   39.22
 20.37    1529   39.10
 20.38    1572   39.65
 20.39    1551   39.38
 20.40    1678   40.96
 20.41    1912   43.73
 20.42    2174   46.63
 20.43    2743   52.37
 20.44    3316   57.58
 20.45    4004   63.28
 20.46    4609   67.89
 20.47    5033   70.94
 20.48    5354   73.17
 20.49    5179   71.97
 20.50    5054   71.09
 20.51    4787   69.19
 20.52    4280   65.42
 20.53    3968   62.99
 20.54    3440   58.65
 20.55    3012   54.88
 20.56    2554   50.54
 20.57    2156   46.43
 20.58    1937   44.01
 20.59    1762   41.98
 20.60    1641   40.51
 20.61    1501   38.74
 20.62    1461   38.22
 20.63    1445   38.01
 20.64    1330   36.47
 20.65    1472   38.37
 20.66    1379   37.13
 20.67    1310   36.19
 20.68    1381   37.16
 20.69    1373   37.05
 20.70    1390   37.28
 20.71    1401   37.43
 20.72    1403   37.46
 20.73    1433   37.85
 20.74    1338   36.58
 20.75    1371   37.03
 20.76    1377   37.11
 20.77    1373   37.05
 20.78    1373   37.05
 20.79    1429   37.80
 20.80    1373   37.05
 20.81    1548   39.34
 20.82    1443   37.99
 20.83    1482   38.50
 20.84    1564   39.55
 20.85    1515   38.92
 20.86    1489   38.59
 20.87    1460   38.21
 20.88    1422   37.71
 20.89    1537   39.20
 20.90    1446   38.03
 20.91    1303   36.10
 20.92    1359   36.86
 20.93    1398   37.39
 20.94    1374   37.07
 20.95    1376   37.09
 20.96    1391   37.30
 20.97    1359   36.86
 20.98    1355   36.81
 20.99    1359   36.86
 21.00    1362   36.91
 21.01    1359   36.86
 21.02    1310   36.19
 21.03    1386   37.23
 21.04    1382   37.18
 21.05    1348   36.72
 21.06    1398   37.39
 21.07    1321   36.35
 21.08    1353   36.78
 21.09    1357   36.84
 21.10    1299   36.04
 21.11    1365   36.95
 21.12    1354   36.80
 21.13    1393   37.32
 21.14    1419   37.67
 21.15    1407   37.51
 21.16    1479   38.46
 21.17    1497   38.69
 21.18    1533   39.15
 21.19    1407   37.51
 21.20    1492   38.63
 21.21    1459   38.20
 21.22    1484   38.52
 21.23    1551   39.38
 21.24    1541   39.26
 21.25    1601   40.01
 21.26    1631   40.39
 21.27    1624   40.30
 21.28    1638   40.47
 21.29    1648   40.60
 21.30    1597   39.96
 21.31    1621   40.26
 21.32    1512   38.88
 21.33    1519   38.97
 21.34    1418   37.66
 21.35    1406   37.50
 21.36    1342   36.63
 21.37    1303   36.10
 21.38    1321   36.35
 21.39    1384   37.20
 21.40    1265   35.57
 21.41    1251   35.37
 21.42    1372   37.04
 21.43    1291   35.93
 21.44    1322   36.36
 21.45    1302   36.08
 21.46    1317   36.29
 21.47    1367   36.97
 21.48    1370   37.01
 21.49    1268   35.61
 21.50    1281   35.79
 21.51    1379   37.13
 21.52    1238   35.19
 21.53    1362   36.91
 21.54    1252   35.38
 21.55    1322   36.36
 21.56    1290   35.92
 21.57    1304   36.11
 21.58    1254   35.41
 21.59    1291   35.93
 21.60    1347   36.70
 21.61    1301   36.07
 21.62    1373   37.05
 21.63    1306   36.14
 21.64    1334   36.52
 21.65    1271   35.65
 21.66    1308   36.17
 21.67    1276   35.72
 21.68    1270   35.64
 21.69    1334   36.52
 21.70    1317   36.29
 21.71    1313   36.24
 21.72    1367   36.97
 21.73    1245   35.28
 21.74    1266   35.58
 21.75    1265   35.57
 21.76    1295   35.99
 21.77    1263   35.54
 21.78    1273   35.68
 21.79    1318   36.30
 21.80    1369   37.00
 21.81    1361   36.89
 21.82    1292   35.94
 21.83    1261   35.51
 21.84    1323   36.37
 21.85    1282   35.81
 21.86    1294   35.97
 21.87    1245   35.28
 21.88    1286   35.86
 21.89    1291   35.93
 21.90    1321   36.35
 21.91    1295   35.99
 21.92    1317   36.29
 21.93    1315   36.26
 21.94    1270   35.64
 21.95    1313   36.24
 21.96    1238   35.19
 21.97    1290   35.92
 21.98    1318   36.30
 21.99    1257   35.45
 22.00    1288   35.89
 22.01    1327   36.43
 22.02    1295   35.99
 22.03    1303   36.10
 22.04    1308   36.17
 22.05    1310   36.19
 22.06    1309   36.18
 22.07    1309   36.18
 22.08    1292   35.94
 22.09    1289   35.90
 22.10    1319   36.32
 22.11    1277   35.74
 22.12    1302   36.08
 22.13    1345   36.67
 22.14    1276   35.72
 22.15    1324   36.39
 22.16    1236   35.16
 22.17    1334   36.52
 22.18    1351   36.76
 22.19    1321   36.35
 22.20    1307   36.15
 22.21    1290   35.92
 22.22    1308   36.17
 22.23    1309   36.18
 22.24    1351   36.76
 22.25    1269   35.62
 22.26    1410   37.55
 22.27    1354   36.80
 22.28    1355   36.81
 22.29    1306   36.14
 22.30    1328   36.44
 22.31    1370   37.01
 22.32    1351   36.76
 22.33    1329   36.46
 22.34    1218   34.90
 22.35    1335   36.54
 22.36    1393   37.32
 22.37    1311   36.21
 22.38    1365   36.95
 22.39    1320   36.33
 22.40    1285   35.85
 22.41    1305   36.12
 22.42    1298   36.03
 22.43    1380   37.15
 22.44    1388   37.26
 22.45    1355   36.81
 22.46    1362   36.91
 22.47    1424   37.74
 22.48    1350   36.74
 22.49    1414   37.60
 22.50    1389   37.27
 22.51    1439   37.93
 22.52    1415   37.62
 22.53    1395   37.35
 22.54    1405   37.48
 22.55    1405   37.48
 22.56    1372   37.04
 22.57    1295   35.99
 22.58    1424   37.74
 22.59    1422   37.71
 22.60    1385   37.22
 22.61    1419   37.67
 22.62    1377   37.11
 22.63    1443   37.99
 22.64    1374   37.07
 22.65    1353   36.78
 22.66    1378   37.12
 22.67    1476   38.42
 22.68    1465   38.28
 22.69    1504   38.78
 22.70    1466   38.29
 22.71    1509   38.85
 22.72    1608   40.10
 22.73    1637   40.46
 22.74    1688   41.09
 22.75    1672   40.89
 22.76    1654   40.67
 22.77    1670   40.87
 22.78    1657   40.71
 22.79    1634   40.42
 22.80    1564   39.55
 22.81    1649   40.61
 22.82    1539   39.23
 22.83    1526   39.06
 22.84    1501   38.74
 22.85    1524   39.04
 22.86    1602   40.02
 22.87    1517   38.95
 22.88    1543   39.28
 22.89    1524   39.04
 22.90    1571   39.64
 22.91    1564   39.55
 22.92    1539   39.23
 22.93    1648   40.60
 22.94    1663   40.78
 22.95    1637   40.46
 22.96    1591   39.89
 22.97    1665   40.80
 22.98    1795   42.37
 22.99    1825   42.72
 23.00    2041   45.18
 23.01    2222   47.14
 23.02    2634   51.32
 23.03    3042   55.15
 23.04    3335   57.75
 23.05    3606   60.05
 23.06    3921   62.62
 23.07    3928   62.67
 23.08    3891   62.38
 23.09    3844   62.00
 23.10    3822   61.82
 23.11    3707   60.89
 23.12    3439   58.64
 23.13    3465   58.86
 23.14    3367   58.03
 23.15    3316   57.58
 23.16    3657   60.47
 23.17    4395   66.29
 23.18    5722   75.64
 23.19    8042   89.68
 23.20   10892  104.36
 23.21   13647  116.82
 23.22   16706  129.25
 23.23   19102  138.21
 23.24   20664  143.75
 23.25   20990  144.88
 23.26   20319  142.54
 23.27   18854  137.31
 23.28   17079  130.69
 23.29   15349  123.89
 23.30   14048  118.52
 23.31   12330  111.04
 23.32   10672  103.31
 23.33    8991   94.82
 23.34    7552   86.90
 23.35    6263   79.14
 23.36    5338   73.06
 23.37    5228   72.30
 23.38    5474   73.99
 23.39    6535   80.84
 23.40    9629   98.13
 23.41   14597  120.82
 23.42   23151  152.15
 23.43   35336  187.98
 23.44   48733  220.76
 23.45   62638  250.28
 23.46   74084  272.18
 23.47   81515  285.51
 23.48   84577  290.82
 23.49   82000  286.36
 23.50   76505  276.60
 23.51   69805  264.21
 23.52   62238  249.48
 23.53   55150  234.84
 23.54   48127  219.38
 23.55   40443  201.10
 23.56   32524  180.34
 23.57   24587  156.80
 23.58   17645  132.83
 23.59   11905  109.11
 23.60    7924   89.02
 23.61    5201   72.12
 23.62    4058   63.70
 23.63    3459   58.81
 23.64    3039   55.13
 23.65    2921   54.05
 23.66    2867   53.54
 23.67    2866   53.54
 23.68    2978   54.57
 23.69    3186   56.44
 23.70    3831   61.90
 23.71    4735   68.81
 23.72    6497   80.60
 23.73    8317   91.20
 23.74   10243  101.21
 23.75   12177  110.35
 23.76   13499  116.19
 23.77   14235  119.31
 23.78   13847  117.67
 23.79   13458  116.01
 23.80   12434  111.51
 23.81   11476  107.13
 23.82   10193  100.96
 23.83    9140   95.60
 23.84    7964   89.24
 23.85    6757   82.20
 23.86    5594   74.79
 23.87    4582   67.69
 23.88    3640   60.33
 23.89    2885   53.71
 23.90    2396   48.95
 23.91    2084   45.65
 23.92    1908   43.68
 23.93    1711   41.36
 23.94    1669   40.85
 23.95    1630   40.37
 23.96    1541   39.26
 23.97    1612   40.15
 23.98    1616   40.20
 23.99    1569   39.61
 24.00    1503   38.77
 24.01    1504   38.78
 24.02    1514   38.91
 24.03    1476   38.42
 24.04    1508   38.83
 24.05    1504   38.78
 24.06    1496   38.68
 24.07    1429   37.80
 24.08    1400   37.42
 24.09    1398   37.39
 24.10    1433   37.85
 24.11    1432   37.84
 24.12    1397   37.38
 24.13    1415   37.62
 24.14    1376   37.09
 24.15    1454   38.13
 24.16    1407   37.51
 24.17    1363   36.92
 24.18    1360   36.88
 24.19    1338   36.58
 24.20    1437   37.91
 24.21    1361   36.89
 24.22    1418   37.66
 24.23    1308   36.17
 24.24    1325   36.40
 24.25    1283   35.82
 24.26    1348   36.72
 24.27    1337   36.57
 24.28    1292   35.94
 24.29    1352   36.77
 24.30    1295   35.99
 24.31    1307   36.15
 24.32    1307   36.15
 24.33    1307   36.15
 24.34    1277   35.74
 24.35    1307   36.15
 24.36    1312   36.22
 24.37    1261   35.51
 24.38    1246   35.30
 24.39    1293   35.96
 24.40    1250   35.36
 24.41    1295   35.99
 24.42    1259   35.48
 24.43    1331   36.48
 24.44    1296   36.00
 24.45    1291   35.93
 24.46    1286   35.86
 24.47    1256   35.44
 24.48    1261   35.51
 24.49    1230   35.07
 24.50    1263   35.54
 24.51    1311   36.21
 24.52    1245   35.28
 24.53    1283   35.82
 24.54    1228   35.04
 24.55    1242   35.24
 24.56    1283   35.82
 24.57    1272   35.67
 24.58    1256   35.44
 24.59    1214   34.84
 24.60    1267   35.59
 24.61    1289   35.90
 24.62    1275   35.71
 24.63    1242   35.24
 24.64    1242   35.24
 24.65    1233   35.11
 24.66    1252   35.38
 24.67    1217   34.89
 24.68    1215   34.86
 24.69    1248   35.33
 24.70    1254   35.41
 24.71    1247   35.31
 24.72    1215   34.86
 24.73    1206   34.73
 24.74    1208   34.76
 24.75    1250   35.36
 24.76    1219   34.91
 24.77    1211   34.80
 24.78    1260   35.50
 24.79    1207   34.74
 24.80    1301   36.07
 24.81    1208   34.76
 24.82    1233   35.11
 24.83    1240   35.21
 24.84    1234   35.13
 24.85    1288   35.89
 24.86    1239   35.20
 24.87    1239   35.20
 24.88    1277   35.74
 24.89    1246   35.30
 24.90    1160   34.06
 24.91    1203   34.68
 24.92    1199   34.63
 24.93    1184   34.41
 24.94    1268   35.61
 24.95    1223   34.97
 24.96    1187   34.45
 24.97    1262   35.52
 24.98    1255   35.43
 24.99    1241   35.23
 25.00    1225   35.00
 25.01    1276   35.72
 25.02    1143   33.81
 25.03    1290   35.92
 25.04    1239   35.20
 25.05    1235   35.14
 25.06    1208   34.76
 25.07    1206   34.73
 25.08    1230   35.07
 25.09    1279   35.76
 25.10    1288   35.89
 25.11    1254   35.41
 25.12    1220   34.93
 25.13    1201   34.66
 25.14    1228   35.04
 25.15    1275   35.71
 25.16    1218   34.90
 25.17    1305   36.12
 25.18    1287   35.87
 25.19    1318   36.30
 25.20    1347   36.70
 25.21    1299   36.04
 25.22    1295   35.99
 25.23    1515   38.92
 25.24    1549   39.36
 25.25    1787   42.27
 25.26    1777   42.15
 25.27    1969   44.37
 25.28    1988   44.59
 25.29    2054   45.32
 25.30    1942   44.07
 25.31    1938   44.02
 25.32    1923   43.85
 25.33    1872   43.27
 25.34    1794   42.36
 25.35    1751   41.84
 25.36    1676   40.94
 25.37    1569   39.61
 25.38    1528   39.09
 25.39    1396   37.36
 25.40    1288   35.89
 25.41    1362   36.91
 25.42    1273   35.68
 25.43    1333   36.51
 25.44    1287   35.87
 25.45    1243   35.26
 25.46    1208   34.76
 25.47    1227   35.03
 25.48    1209   34.77
 25.49    1249   35.34
 25.50    1193   34.54
 25.51    1224   34.99
 25.52    1262   35.52
 25.53    1281   35.79
 25.54    1283   35.82
 25.55    1299   36.04
 25.56    1309   36.18
 25.57    1313   36.24
 25.58    1367   36.97
 25.59    1398   37.39
 25.60    1382   37.18
 25.61    1373   37.05
 25.62    1452   38.11
 25.63    1478   38.44
 25.64    1547   39.33
 25.65    1664   40.79
 25.66    1828   42.76
 25.67    2286   47.81
 25.68    3068   55.39
 25.69    3851   62.06
 25.70    4751   68.93
 25.71    5544   74.46
 25.72    6209   78.80
 25.73    6571   81.06
 25.74    6599   81.23
 25.75    6605   81.27
 25.76    6362   79.76
 25.77    5935   77.04
 25.78    5356   73.18
 25.79    4996   70.68
 25.80    4537   67.36
 25.81    4245   65.15
 25.82    3675   60.62
 25.83    3293   57.38
 25.84    2823   53.13
 25.85    2534   50.34
 25.86    2239   47.32
 25.87    2134   46.20
 25.88    2081   45.62
 25.89    2102   45.85
 25.90    2352   48.50
 25.91    2770   52.63
 25.92    3687   60.72
 25.93    5145   71.73
 25.94    7433   86.21
 25.95   10223  101.11
 25.96   12900  113.58
 25.97   15563  124.75
 25.98   17730  133.15
 25.99   18752  136.94
 26.00   19441  139.43
 26.01   18755  136.95
 26.02   17821  133.50
 26.03   16645  129.02
 26.04   15128  123.00
 26.05   13437  115.92
 26.06   12190  110.41
 26.07   10479  102.37
 26.08    9178   95.80
 26.09    7744   88.00
 26.10    6073   77.93
 26.11    4661   68.27
 26.12    3623   60.19
 26.13    2706   52.02
 26.14    2198   46.88
 26.15    1833   42.81
 26.16    1705   41.29
 26.17    1587   39.84
 26.18    1637   40.46
 26.19    1689   41.10
 26.20    1701   41.24
 26.21    1849   43.00
 26.22    2018   44.92
 26.23    2446   49.46
 26.24    2917   54.01
 26.25    3284   57.31
 26.26    3643   60.36
 26.27    3860   62.13
 26.28    3855   62.09
 26.29    3728   61.06
 26.30    3604   60.03
 26.31    3355   57.92
 26.32    3334   57.74
 26.33    3113   55.79
 26.34    2914   53.98
 26.35    2646   51.44
 26.36    2549   50.49
 26.37    2096   45.78
 26.38    1932   43.95
 26.39    1687   41.07
 26.40    1603   40.04
 26.41    1487   38.56
 26.42    1384   37.20
 26.43    1313   36.24
 26.44    1309   36.18
 26.45    1275   35.71
 26.46    1309   36.18
 26.47    1268   35.61
 26.48    1355   36.81
 26.49    1371   37.03
 26.50    1474   38.39
 26.51    1545   39.31
 26.52    1554   39.42
 26.53    1589   39.86
 26.54    1564   39.55
 26.55    1539   39.23
 26.56    1561   39.51
 26.57    1572   39.65
 26.58    1464   38.26
 26.59    1398   37.39
 26.60    1494   38.65
 26.61    1310   36.19
 26.62    1348   36.72
 26.63    1334   36.52
 26.64    1293   35.96
 26.65    1326   36.41
 26.66    1375   37.08
 26.67    1325   36.40
 26.68    1278   35.75
 26.69    1393   37.32
 26.70    1404   37.47
 26.71    1568   39.60
 26.72    1718   41.45
 26.73    2006   44.79
 26.74    2565   50.65
 26.75    3062   55.34
 26.76    3654   60.45
 26.77    4170   64.58
 26.78    4552   67.47
 26.79    4872   69.80
 26.80    4847   69.62
 26.81    4850   69.64
 26.82    4651   68.20
 26.83    4396   66.30
 26.84    4020   63.40
 26.85    3774   61.43
 26.86    3763   61.34
 26.87    3536   59.46
 26.88    3348   57.86
 26.89    3115   55.81
 26.90    2846   53.35
 26.91    2552   50.52
 26.92    2166   46.54
 26.93    2103   45.86
 26.94    1988   44.59
 26.95    2049   45.27
 26.96    2072   45.52
 26.97    2304   48.00
 26.98    2604   51.03
 26.99    3009   54.85
 27.00    3277   57.25
 27.01    3538   59.48
 27.02    3668   60.56
 27.03    3782   61.50
 27.04    3794   61.60
 27.05    3581   59.84
 27.06    3341   57.80
 27.07    3247   56.98
 27.08    3129   55.94
 27.09    2881   53.67
 27.10    2851   53.39
 27.11    2970   54.50
 27.12    3001   54.78
 27.13    3470   58.91
 27.14    3974   63.04
 27.15    4727   68.75
 27.16    5767   75.94
 27.17    6694   81.82
 27.18    7400   86.02
 27.19    7953   89.18
 27.20    8272   90.95
 27.21    8449   91.92
 27.22    8349   91.37
 27.23    8639   92.95
 27.24    8991   94.82
 27.25    9388   96.89
 27.26    9810   99.05
 27.27    9896   99.48
 27.28    9730   98.64
 27.29    9135   95.58
 27.30    8322   91.22
 27.31    7503   86.62
 27.32    6597   81.22
 27.33    5886   76.72
 27.34    5157   71.81
 27.35    4643   68.14
 27.36    4217   64.94
 27.37    3655   60.46
 27.38    3258   57.08
 27.39    2781   52.74
 27.40    2272   47.67
 27.41    2016   44.90
 27.42    1672   40.89
 27.43    1543   39.28
 27.44    1463   38.25
 27.45    1408   37.52
 27.46    1439   37.93
 27.47    1491   38.61
 27.48    1459   38.20
 27.49    1424   37.74
 27.50    1459   38.20
 27.51    1462   38.24
 27.52    1432   37.84
 27.53    1300   36.06
 27.54    1375   37.08
 27.55    1394   37.34
 27.56    1400   37.42
 27.57    1428   37.79
 27.58    1428   37.79
 27.59    1538   39.22
 27.60    1556   39.45
 27.61    1574   39.67
 27.62    1549   39.36
 27.63    1484   38.52
 27.64    1501   38.74
 27.65    1552   39.40
 27.66    1463   38.25
 27.67    1472   38.37
 27.68    1527   39.08
 27.69    1579   39.74
 27.70    1602   40.02
 27.71    1794   42.36
 27.72    2023   44.98
 27.73    2371   48.69
 27.74    2950   54.31
 27.75    3405   58.35
 27.76    3817   61.78
 27.77    3941   62.78
 27.78    4202   64.82
 27.79    4143   64.37
 27.80    4126   64.23
 27.81    4062   63.73
 27.82    3821   61.81
 27.83    3635   60.29
 27.84    3422   58.50
 27.85    3086   55.55
 27.86    2952   54.33
 27.87    2758   52.52
 27.88    2477   49.77
 27.89    2443   49.43
 27.90    2339   48.36
 27.91    2275   47.70
 27.92    2371   48.69
 27.93    2885   53.71
 27.94    3764   61.35
 27.95    5022   70.87
 27.96    6792   82.41
 27.97    8523   92.32
 27.98   10176  100.88
 27.99   11231  105.98
 28.00   11611  107.75
 28.01   11620  107.80
 28.02   11198  105.82
 28.03   10455  102.25
 28.04    9790   98.94
 28.05    8946   94.58
 28.06    8441   91.87
 28.07    7592   87.13
 28.08    6962   83.44
 28.09    6195   78.71
 28.10    5323   72.96
 28.11    4514   67.19
 28.12    3637   60.31
 28.13    2925   54.08
 28.14    2333   48.30
 28.15    2015   44.89
 28.16    1680   40.99
 28.17    1487   38.56
 28.18    1487   38.56
 28.19    1423   37.72
 28.20    1426   37.76
 28.21    1403   37.46
 28.22    1386   37.23
 28.23    1359   36.86
 28.24    1489   38.59
 28.25    1486   38.55
 28.26    1560   39.50
 28.27    1555   39.43
 28.28    1606   40.07
 28.29    1767   42.04
 28.30    1872   43.27
 28.31    2113   45.97
 28.32    2588   50.87
 28.33    3442   58.67
 28.34    4774   69.09
 28.35    6715   81.95
 28.36    9207   95.95
 28.37   11812  108.68
 28.38   14944  122.25
 28.39   16591  128.81
 28.40   17426  132.01
 28.41   18327  135.38
 28.42   18030  134.28
 28.43   17476  132.20
 28.44   16388  128.02
 28.45   15270  123.57
 28.46   14073  118.63
 28.47   12598  112.24
 28.48   11364  106.60
 28.49   10495  102.45
 28.50    9143   95.62
 28.51    7689   87.69
 28.52    6275   79.21
 28.53    4890   69.93
 28.54    3663   60.52
 28.55    2858   53.46
 28.56    2153   46.40
 28.57    1893   43.51
 28.58    1678   40.96
 28.59    1443   37.99
 28.60    1392   37.31
 28.61    1417   37.64
 28.62    1262   35.52
 28.63    1225   35.00
 28.64    1264   35.55
 28.65    1213   34.83
 28.66    1277   35.74
 28.67    1189   34.48
 28.68    1140   33.76
 28.69    1138   33.73
 28.70    1088   32.98
 28.71    1125   33.54
 28.72    1132   33.65
 28.73    1144   33.82
 28.74    1142   33.79
 28.75    1139   33.75
 28.76    1186   34.44
 28.77    1160   34.06
 28.78    1195   34.57
 28.79    1230   35.07
 28.80    1244   35.27
 28.81    1302   36.08
 28.82    1290   35.92
 28.83    1416   37.63
 28.84    1335   36.54
 28.85    1271   35.65
 28.86    1287   35.87
 28.87    1358   36.85
 28.88    1273   35.68
 28.89    1248   35.33
 28.90    1250   35.36
 28.91    1293   35.96
 28.92    1236   35.16
 28.93    1278   35.75
 28.94    1188   34.47
 28.95    1205   34.71
 28.96    1242   35.24
 28.97    1289   35.90
 28.98    1408   37.52
 28.99    1598   39.97
 29.00    1931   43.94
 29.01    2589   50.88
 29.02    3056   55.28
 29.03    3775   61.44
 29.04    4305   65.61
 29.05    4689   68.48
 29.06    5006   70.75
 29.07    5141   71.70
 29.08    4916   70.11
 29.09    4822   69.44
 29.10    4466   66.83
 29.11    4152   64.44
 29.12    3885   62.33
 29.13    3648   60.40
 29.14    3355   57.92
 29.15    3144   56.07
 29.16    2814   53.05
 29.17    2453   49.53
 29.18    2153   46.40
 29.19    1876   43.31
 29.20    1559   39.48
 29.21    1315   36.26
 29.22    1179   34.34
 29.23    1172   34.23
 29.24    1060   32.56
 29.25    1065   32.63
 29.26    1134   33.67
 29.27     955   30.90
 29.28    1038   32.22
 29.29    1061   32.57
 29.30    1034   32.16
 29.31     933   30.55
 29.32     927   30.45
 29.33     982   31.34
 29.34     960   30.98
 29.35    1014   31.84
 29.36    1007   31.73
 29.37     919   30.32
 29.38     998   31.59
 29.39     996   31.56
 29.40     944   30.72
 29.41     970   31.14
 29.42     929   30.48
 29.43     923   30.38
 29.44     968   31.11
 29.45     941   30.68
 29.46     946   30.76
 29.47     961   31.00
 29.48     972   31.18
 29.49     932   30.53
 29.50     927   30.45
 29.51     928   30.46
 29.52     968   31.11
 29.53     947   30.77
 29.54    1015   31.86
 29.55     997   31.58
 29.56    1073   32.76
 29.57    1082   32.89
 29.58    1056   32.50
 29.59    1066   32.65
 29.60    1104   33.23
 29.61    1127   33.57
 29.62    1080   32.86
 29.63    1085   32.94
 29.64    1080   32.86
 29.65    1094   33.08
 29.66    1014   31.84
 29.67    1066   32.65
 29.68    1123   33.51
 29.69    1185   34.42
 29.70    1181   34.37
 29.71    1336   36.55
 29.72    1495   38.67
 29.73    1637   40.46
 29.74    1805   42.49
 29.75    1947   44.12
 29.76    2068   45.48
 29.77    2132   46.17
 29.78    2090   45.72
 29.79    2124   46.09
 29.80    2027   45.02
 29.81    1975   44.44
 29.82    1880   43.36
 29.83    1824   42.71
 29.84    1818   42.64
 29.85    1823   42.70
 29.86    1784   42.24
 29.87    1906   43.66
 29.88    1920   43.82
 29.89    2070   45.50
 29.90    2404   49.03
 29.91    2627   51.25
 29.92    2678   51.75
 29.93    2845   53.34
 29.94    2874   53.61
 29.95    2799   52.91
 29.96    2630   51.28
 29.97    2516   50.16
 29.98    2439   49.39
 29.99    2334   48.31
 30.00    2133   46.18
 30.01    2147   46.34
 30.02    1983   44.53
 30.03    1855   43.07
 30.04    1719   41.46
 30.05    1568   39.60
 30.06    1416   37.63
 30.07    1148   33.88
 30.08    1121   33.48
 30.09     997   31.58
 30.10    1041   32.26
 30.11    1044   32.31
 30.12     969   31.13
 30.13     917   30.28
 30.14     927   30.45
 30.15     961   31.00
 30.16     944   30.72
 30.17     906   30.10
 30.18     893   29.88
 30.19     976   31.24
 30.20     968   31.11
 30.21     935   30.58
 30.22     963   31.03
 30.23     955   30.90
 30.24     952   30.85
 30.25     967   31.10
 30.26     989   31.45
 30.27    1071   32.73
 30.28    1113   33.36
 30.29    1187   34.45
 30.30    1341   36.62
 30.31    1484   38.52
 30.32    1802   42.45
 30.33    2192   46.82
 30.34    2695   51.91
 30.35    3134   55.98
 30.36    3508   59.23
 30.37    3857   62.10
 30.38    3847   62.02
 30.39    3719   60.98
 30.40    3834   61.92
 30.41    3592   59.93
 30.42    3553   59.61
 30.43    3490   59.08
 30.44    3663   60.52
 30.45    3900   62.45
 30.46    4014   63.36
 30.47    4160   64.50
 30.48    4186   64.70
 30.49    4064   63.75
 30.50    3876   62.26
 30.51    3453   58.76
 30.52    3355   57.92
 30.53    2957   54.38
 30.54    2846   53.35
 30.55    2646   51.44
 30.56    2399   48.98
 30.57    2319   48.16
 30.58    2130   46.15
 30.59    1980   44.50
 30.60    1790   42.31
 30.61    1563   39.53
 30.62    1398   37.39
 30.63    1230   35.07
 30.64    1182   34.38
 30.65    1077   32.82
 30.66    1012   31.81
 30.67     944   30.72
 30.68     970   31.14
 30.69     886   29.77
 30.70     881   29.68
 30.71     890   29.83
 30.72     904   30.07
 30.73     852   29.19
 30.74     917   30.28
 30.75     866   29.43
 30.76     928   30.46
 30.77     856   29.26
 30.78     864   29.39
 30.79     832   28.84
 30.80     844   29.05
 30.81     881   29.68
 30.82     894   29.90
 30.83     889   29.82
 30.84     828   28.77
 30.85     841   29.00
 30.86     874   29.56
 30.87     851   29.17
 30.88     862   29.36
 30.89     863   29.38
 30.90     889   29.82
 30.91     893   29.88
 30.92     885   29.75
 30.93     845   29.07
 30.94     825   28.72
 30.95     798   28.25
 30.96     844   29.05
 30.97     876   29.60
 30.98     866   29.43
 30.99     850   29.15
 31.00     860   29.33
 31.01     852   29.19
 31.02     869   29.48
 31.03     808   28.43
 31.04     857   29.27
 31.05     849   29.14
 31.06     875   29.58
 31.07     878   29.63
 31.08     849   29.14
 31.09     906   30.10
 31.10     841   29.00
 31.11     793   28.16
 31.12     878   29.63
 31.13     861   29.34
 31.14     813   28.51
 31.15     832   28.84
 31.16     833   28.86
 31.17     803   28.34
 31.18     865   29.41
 31.19     910   30.17
 31.20     893   29.88
 31.21     818   28.60
 31.22     851   29.17
 31.23     878   29.63
 31.24     802   28.32
 31.25     850   29.15
 31.26     922   30.36
 31.27     890   29.83
 31.28     850   29.15
 31.29     875   29.58
 31.30     990   31.46
 31.31    1025   32.02
 31.32    1126   33.56
 31.33    1174   34.26
 31.34    1404   37.47
 31.35    1623   40.29
 31.36    1785   42.25
 31.37    1831   42.79
 31.38    1958   44.25
 31.39    1918   43.79
 31.40    2005   44.78
 31.41    1974   44.43
 31.42    2031   45.07
 31.43    2098   45.80
 31.44    2024   44.99
 31.45    2093   45.75
 31.46    2046   45.23
 31.47    2118   46.02
 31.48    1989   44.60
 31.49    2024   44.99
 31.50    1953   44.19
 31.51    1848   42.99
 31.52    1813   42.58
 31.53    1959   44.26
 31.54    2028   45.03
 31.55    1984   44.54
 31.56    1964   44.32
 31.57    1978   44.47
 31.58    1978   44.47
 31.59    1904   43.63
 31.60    1871   43.26
 31.61    1759   41.94
 31.62    1578   39.72
 31.63    1539   39.23
 31.64    1495   38.67
 31.65    1444   38.00
 31.66    1435   37.88
 31.67    1312   36.22
 31.68    1338   36.58
 31.69    1345   36.67
 31.70    1413   37.59
 31.71    1454   38.13
 31.72    1501   38.74
 31.73    1590   39.87
 31.74    1652   40.64
 31.75    1592   39.90
 31.76    1602   40.02
 31.77    1562   39.52
 31.78    1593   39.91
 31.79    1450   38.08
 31.80    1391   37.30
 31.81    1321   36.35
 31.82    1262   35.52
 31.83    1182   34.38
 31.84    1190   34.50
 31.85    1095   33.09
 31.86    1086   32.95
 31.87    1032   32.12
 31.88     980   31.30
 31.89     949   30.81
 31.90     920   30.33
 31.91     876   29.60
 31.92     893   29.88
 31.93     839   28.97
 31.94     905   30.08
 31.95     848   29.12
 31.96     855   29.24
 31.97     822   28.67
 31.98     863   29.38
 31.99     817   28.58
 32.00     880   29.66
 32.01     788   28.07
 32.02     858   29.29
 32.03     830   28.81
 32.04     873   29.55
 32.05     842   29.02
 32.06     820   28.64
 32.07     818   28.60
 32.08     897   29.95
 32.09     810   28.46
 32.10     874   29.56
 32.11     843   29.03
 32.12     837   28.93
 32.13     827   28.76
 32.14     868   29.46
 32.15     892   29.87
 32.16     839   28.97
 32.17     838   28.95
 32.18     872   29.53
 32.19     933   30.55
 32.20     903   30.05
 32.21     892   29.87
 32.22     972   31.18
 32.23     911   30.18
 32.24     961   31.00
 32.25    1011   31.80
 32.26    1007   31.73
 32.27    1007   31.73
 32.28    1161   34.07
 32.29    1355   36.81
 32.30    1610   40.12
 32.31    1951   44.17
 32.32    2474   49.74
 32.33    2971   54.51
 32.34    3481   59.00
 32.35    3968   62.99
 32.36    4205   64.85
 32.37    4543   67.40
 32.38    4436   66.60
 32.39    4355   65.99
 32.40    4294   65.53
 32.41    4276   65.39
 32.42    4241   65.12
 32.43    4534   67.33
 32.44    4653   68.21
 32.45    4967   70.48
 32.46    4987   70.62
 32.47    5000   70.71
 32.48    4728   68.76
 32.49    4518   67.22
 32.50    4197   64.78
 32.51    3862   62.14
 32.52    3699   60.82
 32.53    3581   59.84
 32.54    3866   62.18
 32.55    3966   62.98
 32.56    4289   65.49
 32.57    4548   67.44
 32.58    4607   67.87
 32.59    4618   67.96
 32.60    4463   66.81
 32.61    4012   63.34
 32.62    3790   61.56
 32.63    3491   59.08
 32.64    3269   57.18
 32.65    2941   54.23
 32.66    2789   52.81
 32.67    2699   51.95
 32.68    2490   49.90
 32.69    2303   47.99
 32.70    2174   46.63
 32.71    1981   44.51
 32.72    1646   40.57
 32.73    1450   38.08
 32.74    1327   36.43
 32.75    1184   34.41
 32.76    1086   32.95
 32.77    1069   32.70
 32.78     972   31.18
 32.79     920   30.33
 32.80     940   30.66
 32.81     941   30.68
 32.82     949   30.81
 32.83     899   29.98
 32.84     894   29.90
 32.85     872   29.53
 32.86     911   30.18
 32.87     867   29.44
 32.88     876   29.60
 32.89     902   30.03
 32.90     923   30.38
 32.91     933   30.55
 32.92     968   31.11
 32.93     946   30.76
 32.94     890   29.83
 32.95     896   29.93
 32.96     883   29.72
 32.97     919   30.32
 32.98     883   29.72
 32.99     908   30.13
 33.00     873   29.55
 33.01     844   29.05
 33.02     834   28.88
 33.03     857   29.27
 33.04     855   29.24
 33.05     872   29.53
 33.06     865   29.41
 33.07     835   28.90
 33.08     857   29.27
 33.09     858   29.29
 33.10     843   29.03
 33.11     838   28.95
 33.12     830   28.81
 33.13     814   28.53
 33.14     870   29.50
 33.15     795   28.20
 33.16     836   28.91
 33.17     811   28.48
 33.18     858   29.29
 33.19     952   30.85
 33.20     906   30.10
 33.21     998   31.59
 33.22    1050   32.40
 33.23    1181   34.37
 33.24    1250   35.36
 33.25    1342   36.63
 33.26    1450   38.08
 33.27    1551   39.38
 33.28    1580   39.75
 33.29    1543   39.28
 33.30    1552   39.40
 33.31    1542   39.27
 33.32    1436   37.89
 33.33    1472   38.37
 33.34    1341   36.62
 33.35    1361   36.89
 33.36    1341   36.62
 33.37    1333   36.51
 33.38    1178   34.32
 33.39    1198   34.61
 33.40    1133   33.66
 33.41    1104   33.23
 33.42    1016   31.87
 33.43     953   30.87
 33.44     939   30.64
 33.45     896   29.93
 33.46     872   29.53
 33.47     838   28.95
 33.48     863   29.38
 33.49     898   29.97
 33.50     914   30.23
 33.51     889   29.82
 33.52     896   29.93
 33.53     919   30.32
 33.54     916   30.27
 33.55     982   31.34
 33.56    1012   31.81
 33.57    1048   32.37
 33.58    1011   31.80
 33.59    1169   34.19
 33.60    1201   34.66
 33.61    1280   35.78
 33.62    1567   39.59
 33.63    1933   43.97
 33.64    2235   47.28
 33.65    2837   53.26
 33.66    3562   59.68
 33.67    4092   63.97
 33.68    4610   67.90
 33.69    4832   69.51
 33.70    5117   71.53
 33.71    4934   70.24
 33.72    4998   70.70
 33.73    4924   70.17
 33.74    5047   71.04
 33.75    5269   72.59
 33.76    5676   75.34
 33.77    6213   78.82
 33.78    6935   83.28
 33.79    7550   86.89
 33.80    8339   91.32
 33.81    8850   94.07
 33.82    9157   95.69
 33.83    8868   94.17
 33.84    8891   94.29
 33.85    8510   92.25
 33.86    8048   89.71
 33.87    7680   87.64
 33.88    7624   87.32
 33.89    7299   85.43
 33.90    7324   85.58
 33.91    7312   85.51
 33.92    7366   85.83
 33.93    7333   85.63
 33.94    7230   85.03
 33.95    7135   84.47
 33.96    6584   81.14
 33.97    6037   77.70
 33.98    5580   74.70
 33.99    4994   70.67
 34.00    4568   67.59
 34.01    3928   62.67
 34.02    3571   59.76
 34.03    3280   57.27
 34.04    3030   55.05
 34.05    2890   53.76
 34.06    2663   51.60
 34.07    2466   49.66
 34.08    2202   46.93
 34.09    1965   44.33
 34.10    1636   40.45
 34.11    1471   38.35
 34.12    1229   35.06
 34.13    1051   32.42
 34.14    1144   33.82
 34.15    1051   32.42
 34.16    1008   31.75
 34.17     981   31.32
 34.18     941   30.68
 34.19     957   30.94
 34.20     979   31.29
 34.21    1001   31.64
 34.22     954   30.89
 34.23     975   31.22
 34.24     950   30.82
 34.25     947   30.77
 34.26     937   30.61
 34.27     911   30.18
 34.28     973   31.19
 34.29     985   31.38
 34.30     956   30.92
 34.31     961   31.00
 34.32     989   31.45
 34.33    1050   32.40
 34.34    1043   32.30
 34.35    1284   35.83
 34.36    1305   36.12
 34.37    1514   38.91
 34.38    1812   42.57
 34.39    2079   45.60
 34.40    2352   48.50
 34.41    2538   50.38
 34.42    2697   51.93
 34.43    3098   55.66
 34.44    3235   56.88
 34.45    3468   58.89
 34.46    3652   60.43
 34.47    3940   62.77
 34.48    3953   62.87
 34.49    3815   61.77
 34.50    3769   61.39
 34.51    3680   60.66
 34.52    3527   59.39
 34.53    3215   56.70
 34.54    3018   54.94
 34.55    2859   53.47
 34.56    2662   51.59
 34.57    2500   50.00
 34.58    2495   49.95
 34.59    2417   49.16
 34.60    2256   47.50
 34.61    2106   45.89
 34.62    1950   44.16
 34.63    1780   42.19
 34.64    1688   41.09
 34.65    1467   38.30
 34.66    1424   37.74
 34.67    1328   36.44
 34.68    1296   36.00
 34.69    1215   34.86
 34.70    1152   33.94
 34.71    1152   33.94
 34.72    1073   32.76
 34.73    1118   33.44
 34.74    1097   33.12
 34.75     996   31.56
 34.76    1042   32.28
 34.77     991   31.48
 34.78     995   31.54
 34.79    1097   33.12
 34.80    1066   32.65
 34.81    1128   33.59
 34.82    1245   35.28
 34.83    1271   35.65
 34.84    1325   36.40
 34.85    1338   36.58
 34.86    1276   35.72
 34.87    1370   37.01
 34.88    1436   37.89
 34.89    1490   38.60
 34.90    1543   39.28
 34.91    1701   41.24
 34.92    1801   42.44
 34.93    1939   44.03
 34.94    2008   44.81
 34.95    2016   44.90
 34.96    2088   45.69
 34.97    1979   44.49
 34.98    1931   43.94
 34.99    1869   43.23
 35.00    1691   41.12
 35.01    1685   41.05
 35.02    1554   39.42
 35.03    1496   38.68
 35.04    1452   38.11
 35.05    1373   37.05
 35.06    1451   38.09
 35.07    1240   35.21
 35.08    1123   33.51
 35.09    1040   32.25
 35.10     994   31.53
 35.11     968   31.11
 35.12     823   28.69
 35.13     870   29.50
 35.14     821   28.65
 35.15     780   27.93
 35.16     742   27.24
 35.17     789   28.09
 35.18     790   28.11
 35.19     796   28.21
 35.20     745   27.29
 35.21     757   27.51
 35.22     756   27.50
 35.23     732   27.06
 35.24     731   27.04
 35.25     736   27.13
 35.26     731   27.04
 35.27     703   26.51
 35.28     814   28.53
 35.29     788   28.07
 35.30     735   27.11
 35.31     735   27.11
 35.32     739   27.18
 35.33     749   27.37
 35.34     706   26.57
 35.35     730   27.02
 35.36     769   27.73
 35.37     860   29.33
 35.38     778   27.89
 35.39     759   27.55
 35.40     789   28.09
 35.41     809   28.44
 35.42     833   28.86
 35.43     908   30.13
 35.44    1063   32.60
 35.45    1095   33.09
 35.46    1234   35.13
 35.47    1385   37.22
 35.48    1568   39.60
 35.49    1745   41.77
 35.50    1924   43.86
 35.51    2083   45.64
 35.52    2202   46.93
 35.53    2204   46.95
 35.54    2170   46.58
 35.55    2081   45.62
 35.56    2014   44.88
 35.57    1974   44.43
 35.58    1807   42.51
 35.59    1742   41.74
 35.60    1650   40.62
 35.61    1622   40.27
 35.62    1672   40.89
 35.63    1589   39.86
 35.64    1541   39.26
 35.65    1453   38.12
 35.66    1333   36.51
 35.67    1252   35.38
 35.68    1162   34.09
 35.69    1182   34.38
 35.70    1030   32.09
 35.71     912   30.20
 35.72     916   30.27
 35.73     902   30.03
 35.74     931   30.51
 35.75     830   28.81
 35.76     840   28.98
 35.77     888   29.80
 35.78     859   29.31
 35.79     758   27.53
 35.80     841   29.00
 35.81     760   27.57
 35.82     828   28.77
 35.83     768   27.71
 35.84     773   27.80
 35.85     827   28.76
 35.86     823   28.69
 35.87     854   29.22
 35.88     923   30.38
 35.89    1034   32.16
 35.90    1173   34.25
 35.91    1275   35.71
 35.92    1412   37.58
 35.93    1536   39.19
 35.94    1439   37.93
 35.95    1524   39.04
 35.96    1525   39.05
 35.97    1458   38.18
 35.98    1444   38.00
 35.99    1431   37.83
 36.00    1343   36.65
 36.01    1268   35.61
 36.02    1248   35.33
 36.03    1238   35.19
 36.04    1184   34.41
 36.05    1149   33.90
 36.06    1152   33.94
 36.07    1133   33.66
 36.08     973   31.19
 36.09     926   30.43
 36.10     886   29.77
 36.11     834   28.88
 36.12     797   28.23
 36.13     788   28.07
 36.14     786   28.04
 36.15     773   27.80
 36.16     789   28.09
 36.17     767   27.69
 36.18     786   28.04
 36.19     767   27.69
 36.20     843   29.03
 36.21     839   28.97
 36.22     861   29.34
 36.23     883   29.72
 36.24     877   29.61
 36.25     896   29.93
 36.26     906   30.10
 36.27     967   31.10
 36.28     946   30.76
 36.29     950   30.82
 36.30     907   30.12
 36.31     922   30.36
 36.32     894   29.90
 36.33     896   29.93
 36.34     844   29.05
 36.35     828   28.77
 36.36     854   29.22
 36.37     899   29.98
 36.38     798   28.25
 36.39     806   28.39
 36.40     801   28.30
 36.41     803   28.34
 36.42     778   27.89
 36.43     788   28.07
 36.44     792   28.14
 36.45     780   27.93
 36.46     805   28.37
 36.47     843   29.03
 36.48     910   30.17
 36.49    1005   31.70
 36.50    1027   32.05
 36.51    1080   32.86
 36.52    1110   33.32
 36.53    1151   33.93
 36.54    1195   34.57
 36.55    1151   33.93
 36.56    1200   34.64
 36.57    1149   33.90
 36.58    1021   31.95
 36.59    1045   32.33
 36.60    1015   31.86
 36.61    1032   32.12
 36.62     956   30.92
 36.63     946   30.76
 36.64     879   29.65
 36.65     858   29.29
 36.66     858   29.29
 36.67     867   29.44
 36.68     820   28.64
 36.69     776   27.86
 36.70     730   27.02
 36.71     692   26.31
 36.72     729   27.00
 36.73     690   26.27
 36.74     729   27.00
 36.75     676   26.00
 36.76     683   26.13
 36.77     727   26.96
 36.78     688   26.23
 36.79     719   26.81
 36.80     700   26.46
 36.81     733   27.07
 36.82     714   26.72
 36.83     736   27.13
 36.84     706   26.57
 36.85     722   26.87
 36.86     757   27.51
 36.87     697   26.40
 36.88     684   26.15
 36.89     690   26.27
 36.90     702   26.50
 36.91     713   26.70
 36.92     689   26.25
 36.93     675   25.98
 36.94     670   25.88
 36.95     657   25.63
 36.96     640   25.30
 36.97     687   26.21
 36.98     707   26.59
 36.99     658   25.65
 37.00     616   24.82
 37.01     692   26.31
 37.02     648   25.46
 37.03     689   26.25
 37.04     676   26.00
 37.05     667   25.83
 37.06     688   26.23
 37.07     755   27.48
 37.08     715   26.74
 37.09     745   27.29
 37.10     780   27.93
 37.11     798   28.25
 37.12     789   28.09
 37.13     801   28.30
 37.14     793   28.16
 37.15     788   28.07
 37.16     751   27.40
 37.17     766   27.68
 37.18     699   26.44
 37.19     766   27.68
 37.20     704   26.53
 37.21     789   28.09
 37.22     698   26.42
 37.23     734   27.09
 37.24     763   27.62
 37.25     692   26.31
 37.26     773   27.80
 37.27     742   27.24
 37.28     682   26.12
 37.29     672   25.92
 37.30     708   26.61
 37.31     637   25.24
 37.32     651   25.51
 37.33     658   25.65
 37.34     676   26.00
 37.35     623   24.96
 37.36     663   25.75
 37.37     677   26.02
 37.38     663   25.75
 37.39     712   26.68
 37.40     706   26.57
 37.41     635   25.20
 37.42     631   25.12
 37.43     624   24.98
 37.44     696   26.38
 37.45     670   25.88
 37.46     698   26.42
 37.47     731   27.04
 37.48     698   26.42
 37.49     752   27.42
 37.50     747   27.33
 37.51     806   28.39
 37.52     826   28.74
 37.53     879   29.65
 37.54     867   29.44
 37.55     848   29.12
 37.56     841   29.00
 37.57     899   29.98
 37.58     878   29.63
 37.59     818   28.60
 37.60     827   28.76
 37.61     815   28.55
 37.62     804   28.35
 37.63     778   27.89
 37.64     751   27.40
 37.65     755   27.48
 37.66     785   28.02
 37.67     733   27.07
 37.68     687   26.21
 37.69     726   26.94
 37.70     722   26.87
 37.71     738   27.17
 37.72     710   26.65
 37.73     700   26.46
 37.74     730   27.02
 37.75     690   26.27
 37.76     727   26.96
 37.77     730   27.02
 37.78     688   26.23
 37.79     720   26.83
 37.80     742   27.24
 37.81     753   27.44
 37.82     719   26.81
 37.83     713   26.70
 37.84     663   25.75
 37.85     727   26.96
 37.86     706   26.57
 37.87     694   26.34
 37.88     719   26.81
 37.89     700   26.46
 37.90     671   25.90
 37.91     719   26.81
 37.92     695   26.36
 37.93     702   26.50
 37.94     676   26.00
 37.95     710   26.65
 37.96     774   27.82
 37.97     745   27.29
 37.98     762   27.60
 37.99     836   28.91
 38.00     924   30.40
 38.01     948   30.79
 38.02    1043   32.30
 38.03    1129   33.60
 38.04    1163   34.10
 38.05    1204   34.70
 38.06    1189   34.48
 38.07    1322   36.36
 38.08    1296   36.00
 38.09    1175   34.28
 38.10    1216   34.87
 38.11    1201   34.66
 38.12    1115   33.39
 38.13    1181   34.37
 38.14    1207   34.74
 38.15    1254   35.41
 38.16    1203   34.68
 38.17    1237   35.17
 38.18    1113   33.36
 38.19    1165   34.13
 38.20    1128   33.59
 38.21     999   31.61
 38.22     942   30.69
 38.23     949   30.81
 38.24     894   29.90
 38.25     886   29.77
 38.26     865   29.41
 38.27     805   28.37
 38.28     870   29.50
 38.29     882   29.70
 38.30     827   28.76
 38.31     831   28.83
 38.32     821   28.65
 38.33     862   29.36
 38.34     910   30.17
 38.35     966   31.08
 38.36    1034   32.16
 38.37    1035   32.17
 38.38    1059   32.54
 38.39    1066   32.65
 38.40    1044   32.31
 38.41    1073   32.76
 38.42    1030   32.09
 38.43     962   31.02
 38.44     925   30.41
 38.45     985   31.38
 38.46     939   30.64
 38.47     939   30.64
 38.48     924   30.40
 38.49     953   30.87
 38.50     963   31.03
 38.51     933   30.55
 38.52    1013   31.83
 38.53    1070   32.71
 38.54    1165   34.13
 38.55    1292   35.94
 38.56    1524   39.04
 38.57    1636   40.45
 38.58    1864   43.17
 38.59    1946   44.11
 38.60    2122   46.07
 38.61    2181   46.70
 38.62    2371   48.69
 38.63    2315   48.11
 38.64    2268   47.62
 38.65    2340   48.37
 38.66    2125   46.10
 38.67    2109   45.92
 38.68    1982   44.52
 38.69    1883   43.39
 38.70    1762   41.98
 38.71    1737   41.68
 38.72    1643   40.53
 38.73    1577   39.71
 38.74    1484   38.52
 38.75    1425   37.75
 38.76    1362   36.91
 38.77    1232   35.10
 38.78    1202   34.67
 38.79    1084   32.92
 38.80     990   31.46
 38.81     964   31.05
 38.82     956   30.92
 38.83     856   29.26
 38.84     814   28.53
 38.85     808   28.43
 38.86     822   28.67
 38.87     764   27.64
 38.88     776   27.86
 38.89     855   29.24
 38.90     781   27.95
 38.91     832   28.84
 38.92     785   28.02
 38.93     772   27.78
 38.94     805   28.37
 38.95     808   28.43
 38.96     785   28.02
 38.97     793   28.16
 38.98     746   27.31
 38.99     707   26.59
 39.00     792   28.14
 39.01     758   27.53
 39.02     773   27.80
 39.03     745   27.29
 39.04     786   28.04
 39.05     788   28.07
 39.06     854   29.22
 39.07     896   29.93
 39.08    1005   31.70
 39.09    1127   33.57
 39.10    1156   34.00
 39.11    1182   34.38
 39.12    1298   36.03
 39.13    1292   35.94
 39.14    1321   36.35
 39.15    1300   36.06
 39.16    1301   36.07
 39.17    1258   35.47
 39.18    1190   34.50
 39.19    1127   33.57
 39.20    1092   33.05
 39.21    1190   34.50
 39.22    1154   33.97
 39.23    1197   34.60
 39.24    1204   34.70
 39.25    1231   35.09
 39.26    1268   35.61
 39.27    1247   35.31
 39.28    1243   35.26
 39.29    1191   34.51
 39.30    1172   34.23
 39.31    1106   33.26
 39.32    1154   33.97
 39.33    1050   32.40
 39.34    1111   33.33
 39.35    1187   34.45
 39.36    1213   34.83
 39.37    1280   35.78
 39.38    1412   37.58
 39.39    1543   39.28
 39.40    1576   39.70
 39.41    1593   39.91
 39.42    1648   40.60
 39.43    1640   40.50
 39.44    1577   39.71
 39.45    1600   40.00
 39.46    1466   38.29
 39.47    1373   37.05
 39.48    1347   36.70
 39.49    1254   35.41
 39.50    1193   34.54
 39.51    1203   34.68
 39.52    1186   34.44
 39.53    1153   33.96
 39.54    1193   34.54
 39.55    1115   33.39
 39.56    1089   33.00
 39.57    1011   31.80
 39.58    1044   32.31
 39.59     968   31.11
 39.60     870   29.50
 39.61     843   29.03
 39.62     886   29.77
 39.63     825   28.72
 39.64     802   28.32
 39.65     878   29.63
 39.66     923   30.38
 39.67     960   30.98
 39.68    1020   31.94
 39.69    1099   33.15
 39.70    1175   34.28
 39.71    1243   35.26
 39.72    1221   34.94
 39.73    1187   34.45
 39.74    1087   32.97
 39.75    1188   34.47
 39.76    1077   32.82
 39.77    1105   33.24
 39.78    1122   33.50
 39.79    1118   33.44
 39.80    1087   32.97
 39.81    1101   33.18
 39.82    1120   33.47
 39.83    1091   33.03
 39.84    1138   33.73
 39.85    1118   33.44
 39.86    1025   32.02
 39.87     977   31.26
 39.88     989   31.45
 39.89     972   31.18
 39.90     936   30.59
 39.91     903   30.05
 39.92     855   29.24
 39.93     893   29.88
 39.94     864   29.39
 39.95     835   28.90
 39.96     867   29.44
 39.97     906   30.10
 39.98    1001   31.64
 39.99    1051   32.42
 40.00    1160   34.06
 40.01    1296   36.00
 40.02    1358   36.85
 40.03    1562   39.52
 40.04    1743   41.75
 40.05    1746   41.79
 40.06    1827   42.74
 40.07    1864   43.17
 40.08    1802   42.45
 40.09    1766   42.02
 40.10    1681   41.00
 40.11    1553   39.41
 40.12    1534   39.17
 40.13    1497   38.69
 40.14    1484   38.52
 40.15    1348   36.72
 40.16    1391   37.30
 40.17    1365   36.95
 40.18    1327   36.43
 40.19    1302   36.08
 40.20    1225   35.00
 40.21    1202   34.67
 40.22    1149   33.90
 40.23    1104   33.23
 40.24    1098   33.14
 40.25    1146   33.85
 40.26    1182   34.38
 40.27    1420   37.68
 40.28    1495   38.67
 40.29    1554   39.42
 40.30    1618   40.22
 40.31    1595   39.94
 40.32    1703   41.27
 40.33    1572   39.65
 40.34    1535   39.18
 40.35    1540   39.24
 40.36    1490   38.60
 40.37    1393   37.32
 40.38    1304   36.11
 40.39    1295   35.99
 40.40    1305   36.12
 40.41    1326   36.41
 40.42    1346   36.69
 40.43    1341   36.62
 40.44    1411   37.56
 40.45    1492   38.63
 40.46    1611   40.14
 40.47    1701   41.24
 40.48    1593   39.91
 40.49    1669   40.85
 40.50    1676   40.94
 40.51    1655   40.68
 40.52    1584   39.80
 40.53    1503   38.77
 40.54    1475   38.41
 40.55    1392   37.31
 40.56    1304   36.11
 40.57    1224   34.99
 40.58    1230   35.07
 40.59    1206   34.73
 40.60    1227   35.03
 40.61    1164   34.12
 40.62    1148   33.88
 40.63    1136   33.70
 40.64    1042   32.28
 40.65    1044   32.31
 40.66     942   30.69
 40.67     917   30.28
 40.68     854   29.22
 40.69     819   28.62
 40.70     779   27.91
 40.71     802   28.32
 40.72     783   27.98
 40.73     756   27.50
 40.74     774   27.82
 40.75     803   28.34
 40.76     908   30.13
 40.77     970   31.14
 40.78     998   31.59
 40.79    1118   33.44
 40.80    1178   34.32
 40.81    1240   35.21
 40.82    1210   34.79
 40.83    1289   35.90
 40.84    1284   35.83
 40.85    1369   37.00
 40.86    1360   36.88
 40.87    1339   36.59
 40.88    1314   36.25
 40.89    1272   35.67
 40.90    1282   35.81
 40.91    1271   35.65
 40.92    1203   34.68
 40.93    1220   34.93
 40.94    1155   33.99
 40.95    1125   33.54
 40.96    1075   32.79
 40.97    1020   31.94
 40.98     922   30.36
 40.99    1090   33.02
 41.00     930   30.50
 41.01     878   29.63
 41.02     900   30.00
 41.03     865   29.41
 41.04     757   27.51
 41.05     798   28.25
 41.06     738   27.17
 41.07     756   27.50
 41.08     698   26.42
 41.09     685   26.17
 41.10     781   27.95
 41.11     687   26.21
 41.12     704   26.53
 41.13     737   27.15
 41.14     821   28.65
 41.15     853   29.21
 41.16     911   30.18
 41.17    1008   31.75
 41.18    1118   33.44
 41.19    1343   36.65
 41.20    1525   39.05
 41.21    1646   40.57
 41.22    1856   43.08
 41.23    1995   44.67
 41.24    2072   45.52
 41.25    2167   46.55
 41.26    2213   47.04
 41.27    2217   47.09
 41.28    2220   47.12
 41.29    2210   47.01
 41.30    2193   46.83
 41.31    2119   46.03
 41.32    2037   45.13
 41.33    2025   45.00
 41.34    1886   43.43
 41.35    1765   42.01
 41.36    1851   43.02
 41.37    1664   40.79
 41.38    1588   39.85
 41.39    1552   39.40
 41.40    1472   38.37
 41.41    1324   36.39
 41.42    1232   35.10
 41.43    1165   34.13
 41.44    1129   33.60
 41.45     967   31.10
 41.46     962   31.02
 41.47     931   30.51
 41.48     837   28.93
 41.49     759   27.55
 41.50     786   28.04
 41.51     703   26.51
 41.52     732   27.06
 41.53     717   26.78
 41.54     738   27.17
 41.55     745   27.29
 41.56     780   27.93
 41.57     753   27.44
 41.58     768   27.71
 41.59     749   27.37
 41.60     825   28.72
 41.61     818   28.60
 41.62     871   29.51
 41.63     824   28.71
 41.64     876   29.60
 41.65     891   29.85
 41.66     869   29.48
 41.67     833   28.86
 41.68     824   28.71
 41.69     801   28.30
 41.70     798   28.25
 41.71     794   28.18
 41.72     805   28.37
 41.73     811   28.48
 41.74     755   27.48
 41.75     761   27.59
 41.76     731   27.04
 41.77     734   27.09
 41.78     729   27.00
 41.79     759   27.55
 41.80     703   26.51
 41.81     716   26.76
 41.82     704   26.53
 41.83     679   26.06
 41.84     642   25.34
 41.85     692   26.31
 41.86     700   26.46
 41.87     699   26.44
 41.88     655   25.59
 41.89     689   26.25
 41.90     608   24.66
 41.91     658   25.65
 41.92     684   26.15
 41.93     662   25.73
 41.94     658   25.65
 41.95     684   26.15
 41.96     653   25.55
 41.97     658   25.65
 41.98     649   25.48
 41.99     652   25.53
 42.00     700   26.46
 42.01     659   25.67
 42.02     635   25.20
 42.03     656   25.61
 42.04     646   25.42
 42.05     679   26.06
 42.06     748   27.35
 42.07     691   26.29
 42.08     659   25.67
 42.09     738   27.17
 42.10     699   26.44
 42.11     690   26.27
 42.12     721   26.85
 42.13     699   26.44
 42.14     664   25.77
 42.15     784   28.00
 42.16     795   28.20
 42.17     763   27.62
 42.18     762   27.60
 42.19     802   28.32
 42.20     793   28.16
 42.21     876   29.60
 42.22     909   30.15
 42.23     972   31.18
 42.24     986   31.40
 42.25    1198   34.61
 42.26    1303   36.10
 42.27    1389   37.27
 42.28    1540   39.24
 42.29    1727   41.56
 42.30    1938   44.02
 42.31    1959   44.26
 42.32    2030   45.06
 42.33    2029   45.04
 42.34    1990   44.61
 42.35    2033   45.09
 42.36    1931   43.94
 42.37    1850   43.01
 42.38    1837   42.86
 42.39    1886   43.43
 42.40    2056   45.34
 42.41    2062   45.41
 42.42    2217   47.09
 42.43    2488   49.88
 42.44    2667   51.64
 42.45    2974   54.53
 42.46    3277   57.25
 42.47    3511   59.25
 42.48    3535   59.46
 42.49    3539   59.49
 42.50    3475   58.95
 42.51    3489   59.07
 42.52    3188   56.46
 42.53    3210   56.66
 42.54    3131   55.96
 42.55    3082   55.52
 42.56    2838   53.27
 42.57    2928   54.11
 42.58    3009   54.85
 42.59    2882   53.68
 42.60    2875   53.62
 42.61    2773   52.66
 42.62    2686   51.83
 42.63    2496   49.96
 42.64    2285   47.80
 42.65    2064   45.43
 42.66    1882   43.38
 42.67    1684   41.04
 42.68    1570   39.62
 42.69    1469   38.33
 42.70    1343   36.65
 42.71    1281   35.79
 42.72    1329   36.46
 42.73    1259   35.48
 42.74    1131   33.63
 42.75    1157   34.01
 42.76    1192   34.53
 42.77    1183   34.39
 42.78    1301   36.07
 42.79    1291   35.93
 42.80    1416   37.63
 42.81    1484   38.52
 42.82    1525   39.05
 42.83    1488   38.57
 42.84    1587   39.84
 42.85    1531   39.13
 42.86    1500   38.73
 42.87    1454   38.13
 42.88    1440   37.95
 42.89    1375   37.08
 42.90    1292   35.94
 42.91    1320   36.33
 42.92    1335   36.54
 42.93    1333   36.51
 42.94    1393   37.32
 42.95    1352   36.77
 42.96    1408   37.52
 42.97    1428   37.79
 42.98    1464   38.26
 42.99    1459   38.20
 43.00    1483   38.51
 43.01    1430   37.82
 43.02    1308   36.17
 43.03    1229   35.06
 43.04    1230   35.07
 43.05    1103   33.21
 43.06    1054   32.47
 43.07    1010   31.78
 43.08    1036   32.19
 43.09    1054   32.47
 43.10    1008   31.75
 43.11    1049   32.39
 43.12    1093   33.06
 43.13    1161   34.07
 43.14    1253   35.40
 43.15    1328   36.44
 43.16    1438   37.92
 43.17    1512   38.88
 43.18    1600   40.00
 43.19    1580   39.75
 43.20    1570   39.62
 43.21    1499   38.72
 43.22    1479   38.46
 43.23    1389   37.27
 43.24    1348   36.72
 43.25    1343   36.65
 43.26    1320   36.33
 43.27    1205   34.71
 43.28    1234   35.13
 43.29    1223   34.97
 43.30    1176   34.29
 43.31    1206   34.73
 43.32    1172   34.23
 43.33    1219   34.91
 43.34    1127   33.57
 43.35    1107   33.27
 43.36    1001   31.64
 43.37     945   30.74
 43.38     952   30.85
 43.39     939   30.64
 43.40     858   29.29
 43.41     848   29.12
 43.42     872   29.53
 43.43     898   29.97
 43.44     943   30.71
 43.45     935   30.58
 43.46     942   30.69
 43.47     898   29.97
 43.48     861   29.34
 43.49     858   29.29
 43.50     844   29.05
 43.51     810   28.46
 43.52     775   27.84
 43.53     802   28.32
 43.54     817   28.58
 43.55     784   28.00
 43.56     828   28.77
 43.57     829   28.79
 43.58     853   29.21
 43.59     822   28.67
 43.60     882   29.70
 43.61     877   29.61
 43.62     959   30.97
 43.63    1030   32.09
 43.64    1048   32.37
 43.65    1071   32.73
 43.66    1070   32.71
 43.67    1150   33.91
 43.68    1182   34.38
 43.69    1142   33.79
 43.70    1112   33.35
 43.71    1152   33.94
 43.72    1111   33.33
 43.73    1100   33.17
 43.74     987   31.42
 43.75    1051   32.42
 43.76    1018   31.91
 43.77    1016   31.87
 43.78    1002   31.65
 43.79    1074   32.77
 43.80     979   31.29
 43.81    1006   31.72
 43.82     984   31.37
 43.83     966   31.08
 43.84     906   30.10
 43.85     832   28.84
 43.86     916   30.27
 43.87     859   29.31
 43.88     806   28.39
 43.89     778   27.89
 43.90     737   27.15
 43.91     772   27.78
 43.92     775   27.84
 43.93     714   26.72
 43.94     720   26.83
 43.95     738   27.17
 43.96     778   27.89
 43.97     751   27.40
 43.98     747   27.33
 43.99     723   26.89
 44.00     709   26.63
 44.01     744   27.28
 44.02     742   27.24
 44.03     707   26.59
 44.04     705   26.55
 44.05     703   26.51
 44.06     690   26.27
 44.07     777   27.87
 44.08     786   28.04
 44.09     927   30.45
 44.10     977   31.26
 44.11    1024   32.00
 44.12    1244   35.27
 44.13    1372   37.04
 44.14    1481   38.48
 44.15    1619   40.24
 44.16    1657   40.71
 44.17    1650   40.62
 44.18    1630   40.37
 44.19    1713   41.39
 44.20    1560   39.50
 44.21    1549   39.36
 44.22    1405   37.48
 44.23    1341   36.62
 44.24    1288   35.89
 44.25    1279   35.76
 44.26    1282   35.81
 44.27    1218   34.90
 44.28    1224   34.99
 44.29    1182   34.38
 44.30    1224   34.99
 44.31    1068   32.68
 44.32    1086   32.95
 44.33    1061   32.57
 44.34     961   31.00
 44.35     882   29.70
 44.36     878   29.63
 44.37     824   28.71
 44.38     772   27.78
 44.39     803   28.34
 44.40     776   27.86
 44.41     815   28.55
 44.42     814   28.53
 44.43     810   28.46
 44.44     796   28.21
 44.45     791   28.12
 44.46     781   27.95
 44.47     798   28.25
 44.48     805   28.37
 44.49     807   28.41
 44.50     864   29.39
 44.51     858   29.29
 44.52     963   31.03
 44.53    1024   32.00
 44.54    1146   33.85
 44.55    1302   36.08
 44.56    1485   38.54
 44.57    1731   41.61
 44.58    1881   43.37
 44.59    2088   45.69
 44.60    2190   46.80
 44.61    2257   47.51
 44.62    2357   48.55
 44.63    2293   47.89
 44.64    2287   47.82
 44.65    2313   48.09
 44.66    2319   48.16
 44.67    2438   49.38
 44.68    2503   50.03
 44.69    2635   51.33
 44.70    2828   53.18
 44.71    2721   52.16
 44.72    2675   51.72
 44.73    2689   51.86
 44.74    2587   50.86
 44.75    2363   48.61
 44.76    2184   46.73
 44.77    2062   45.41
 44.78    1948   44.14
 44.79    1757   41.92
 44.80    1720   41.47
 44.81    1560   39.50
 44.82    1590   39.87
 44.83    1555   39.43
 44.84    1464   38.26
 44.85    1312   36.22
 44.86    1324   36.39
 44.87    1227   35.03
 44.88    1161   34.07
 44.89    1041   32.26
 44.90     946   30.76
 44.91     945   30.74
 44.92     926   30.43
 44.93     960   30.98
 44.94     953   30.87
 44.95     931   30.51
 44.96    1025   32.02
 44.97    1087   32.97
 44.98    1095   33.09
 44.99    1102   33.20
 45.00    1036   32.19
 45.01    1051   32.42
 45.02    1058   32.53
 45.03    1003   31.67
 45.04     998   31.59
 45.05     919   30.32
 45.06     917   30.28
 45.07     933   30.55
 45.08     868   29.46
 45.09     887   29.78
 45.10     876   29.60
 45.11     924   30.40
 45.12     818   28.60
 45.13     798   28.25
 45.14     807   28.41
 45.15     759   27.55
 45.16     827   28.76
 45.17     749   27.37
 45.18     682   26.12
 45.19     700   26.46
 45.20     673   25.94
 45.21     684   26.15
 45.22     613   24.76
 45.23     700   26.46
 45.24     656   25.61
 45.25     581   24.10
 45.26     684   26.15
 45.27     635   25.20
 45.28     610   24.70
 45.29     622   24.94
 45.30     618   24.86
 45.31     631   25.12
 45.32     590   24.29
 45.33     641   25.32
 45.34     637   25.24
 45.35     684   26.15
 45.36     649   25.48
 45.37     609   24.68
 45.38     634   25.18
 45.39     640   25.30
 45.40     633   25.16
 45.41     648   25.46
 45.42     664   25.77
 45.43     595   24.39
 45.44     653   25.55
 45.45     650   25.50
 45.46     678   26.04
 45.47     640   25.30
 45.48     648   25.46
 45.49     668   25.85
 45.50     610   24.70
 45.51     631   25.12
 45.52     666   25.81
 45.53     645   25.40
 45.54     744   27.28
 45.55     666   25.81
 45.56     752   27.42
 45.57     764   27.64
 45.58     798   28.25
 45.59     907   30.12
 45.60     972   31.18
 45.61    1045   32.33
 45.62    1172   34.23
 45.63    1273   35.68
 45.64    1370   37.01
 45.65    1429   37.80
 45.66    1440   37.95
 45.67    1464   38.26
 45.68    1337   36.57
 45.69    1358   36.85
 45.70    1285   35.85
 45.71    1278   35.75
 45.72    1231   35.09
 45.73    1211   34.80
 45.74    1228   35.04
 45.75    1196   34.58
 45.76    1180   34.35
 45.77    1186   34.44
 45.78    1231   35.09
 45.79    1200   34.64
 45.80    1138   33.73
 45.81    1057   32.51
 45.82     958   30.95
 45.83     974   31.21
 45.84     921   30.35
 45.85     868   29.46
 45.86     902   30.03
 45.87     883   29.72
 45.88     860   29.33
 45.89     926   30.43
 45.90     943   30.71
 45.91     971   31.16
 45.92     932   30.53
 45.93     963   31.03
 45.94     988   31.43
 45.95     978   31.27
 45.96    1021   31.95
 45.97     997   31.58
 45.98     970   31.14
 45.99     948   30.79
 46.00     948   30.79
 46.01     910   30.17
 46.02     912   30.20
 46.03     902   30.03
 46.04     912   30.20
 46.05     992   31.50
 46.06    1044   32.31
 46.07    1095   33.09
 46.08    1116   33.41
 46.09    1162   34.09
 46.10    1252   35.38
 46.11    1194   34.55
 46.12    1228   35.04
 46.13    1107   33.27
 46.14    1133   33.66
 46.15    1096   33.11
 46.16    1069   32.70
 46.17    1065   32.63
 46.18    1074   32.77
 46.19    1074   32.77
 46.20    1016   31.87
 46.21    1158   34.03
 46.22    1189   34.48
 46.23    1253   35.40
 46.24    1398   37.39
 46.25    1417   37.64
 46.26    1460   38.21
 46.27    1554   39.42
 46.28    1504   38.78
 46.29    1386   37.23
 46.30    1460   38.21
 46.31    1309   36.18
 46.32    1257   35.45
 46.33    1225   35.00
 46.34    1166   34.15
 46.35    1096   33.11
 46.36    1073   32.76
 46.37    1147   33.87
 46.38    1120   33.47
 46.39    1079   32.85
 46.40    1058   32.53
 46.41    1107   33.27
 46.42    1106   33.26
 46.43    1021   31.95
 46.44    1000   31.62
 46.45    1005   31.70
 46.46     979   31.29
 46.47     868   29.46
 46.48     869   29.48
 46.49     837   28.93
 46.50     792   28.14
 46.51     805   28.37
 46.52     810   28.46
 46.53     776   27.86
 46.54     840   28.98
 46.55     778   27.89
 46.56     857   29.27
 46.57     869   29.48
 46.58     880   29.66
 46.59     846   29.09
 46.60     907   30.12
 46.61     882   29.70
 46.62     822   28.67
 46.63     824   28.71
 46.64     796   28.21
 46.65     753   27.44
 46.66     762   27.60
 46.67     748   27.35
 46.68     715   26.74
 46.69     738   27.17
 46.70     754   27.46
 46.71     709   26.63
 46.72     722   26.87
 46.73     793   28.16
 46.74     807   28.41
 46.75     773   27.80
 46.76     783   27.98
 46.77     872   29.53
 46.78     925   30.41
 46.79     978   31.27
 46.80    1004   31.69
 46.81    1041   32.26
 46.82    1090   33.02
 46.83    1046   32.34
 46.84    1083   32.91
 46.85    1020   31.94
 46.86    1090   33.02
 46.87    1026   32.03
 46.88    1043   32.30
 46.89    1015   31.86
 46.90    1012   31.81
 46.91    1007   31.73
 46.92    1059   32.54
 46.93    1080   32.86
 46.94    1249   35.34
 46.95    1286   35.86
 46.96    1358   36.85
 46.97    1383   37.19
 46.98    1456   38.16
 46.99    1507   38.82
 47.00    1545   39.31
 47.01    1615   40.19
 47.02    1634   40.42
 47.03    1646   40.57
 47.04    1558   39.47
 47.05    1636   40.45
 47.06    1693   41.15
 47.07    1638   40.47
 47.08    1585   39.81
 47.09    1553   39.41
 47.10    1585   39.81
 47.11    1477   38.43
 47.12    1511   38.87
 47.13    1500   38.73
 47.14    1416   37.63
 47.15    1429   37.80
 47.16    1437   37.91
 47.17    1402   37.44
 47.18    1325   36.40
 47.19    1268   35.61
 47.20    1194   34.55
 47.21    1188   34.47
 47.22    1081   32.88
 47.23    1020   31.94
 47.24     983   31.35
 47.25     973   31.19
 47.26     990   31.46
 47.27     840   28.98
 47.28     809   28.44
 47.29     894   29.90
 47.30     769   27.73
 47.31     785   28.02
 47.32     770   27.75
 47.33     753   27.44
 47.34     734   27.09
 47.35     678   26.04
 47.36     699   26.44
 47.37     648   25.46
 47.38     648   25.46
 47.39     642   25.34
 47.40     655   25.59
 47.41     643   25.36
 47.42     693   26.32
 47.43     736   27.13
 47.44     722   26.87
 47.45     733   27.07
 47.46     750   27.39
 47.47     766   27.68
 47.48     777   27.87
 47.49     864   29.39
 47.50     841   29.00
 47.51     899   29.98
 47.52     951   30.84
 47.53     946   30.76
 47.54     954   30.89
 47.55    1028   32.06
 47.56     954   30.89
 47.57     994   31.53
 47.58     925   30.41
 47.59     912   30.20
 47.60     914   30.23
 47.61     904   30.07
 47.62     947   30.77
 47.63     939   30.64
 47.64     893   29.88
 47.65     856   29.26
 47.66     804   28.35
 47.67     826   28.74
 47.68     826   28.74
 47.69     834   28.88
 47.70     730   27.02
 47.71     788   28.07
 47.72     712   26.68
 47.73     762   27.60
 47.74     723   26.89
 47.75     706   26.57
 47.76     738   27.17
 47.77     678   26.04
 47.78     653   25.55
 47.79     669   25.87
 47.80     659   25.67
 47.81     689   26.25
 47.82     715   26.74
 47.83     749   27.37
 47.84     678   26.04
 47.85     719   26.81
 47.86     743   27.26
 47.87     773   27.80
 47.88     782   27.96
 47.89     726   26.94
 47.90     770   27.75
 47.91     704   26.53
 47.92     678   26.04
 47.93     727   26.96
 47.94     726   26.94
 47.95     728   26.98
 47.96     747   27.33
 47.97     728   26.98
 47.98     763   27.62
 47.99     788   28.07
 48.00     782   27.96
 48.01     792   28.14
 48.02     830   28.81
 48.03     862   29.36
 48.04     899   29.98
 48.05     961   31.00
 48.06    1004   31.69
 48.07    1058   32.53
 48.08    1041   32.26
 48.09    1067   32.66
 48.10    1022   31.97
 48.11    1084   32.92
 48.12    1075   32.79
 48.13    1032   32.12
 48.14    1032   32.12
 48.15     990   31.46
 48.16     971   31.16
 48.17     921   30.35
 48.18     904   30.07
 48.19     950   30.82
 48.20     864   29.39
 48.21     879   29.65
 48.22     922   30.36
 48.23     819   28.62
 48.24     833   28.86
 48.25     776   27.86
 48.26     808   28.43
 48.27     820   28.64
 48.28     745   27.29
 48.29     738   27.17
 48.30     744   27.28
 48.31     713   26.70
 48.32     656   25.61
 48.33     657   25.63
 48.34     642   25.34
 48.35     594   24.37
 48.36     612   24.74
 48.37     604   24.58
 48.38     642   25.34
 48.39     589   24.27
 48.40     610   24.70
 48.41     580   24.08
 48.42     555   23.56
 48.43     616   24.82
 48.44     627   25.04
 48.45     594   24.37
 48.46     563   23.73
 48.47     629   25.08
 48.48     558   23.62
 48.49     540   23.24
 48.50     575   23.98
 48.51     579   24.06
 48.52     594   24.37
 48.53     588   24.25
 48.54     568   23.83
 48.55     533   23.09
 48.56     593   24.35
 48.57     583   24.15
 48.58     623   24.96
 48.59     638   25.26
 48.60     651   25.51
 48.61     624   24.98
 48.62     653   25.55
 48.63     615   24.80
 48.64     624   24.98
 48.65     640   25.30
 48.66     640   25.30
 48.67     685   26.17
 48.68     643   25.36
 48.69     635   25.20
 48.70     654   25.57
 48.71     637   25.24
 48.72     638   25.26
 48.73     634   25.18
 48.74     645   25.40
 48.75     647   25.44
 48.76     604   24.58
 48.77     633   25.16
 48.78     641   25.32
 48.79     606   24.62
 48.80     613   24.76
 48.81     659   25.67
 48.82     593   24.35
 48.83     627   25.04
 48.84     648   25.46
 48.85     681   26.10
 48.86     693   26.32
 48.87     747   27.33
 48.88     779   27.91
 48.89     802   28.32
 48.90     799   28.27
 48.91     793   28.16
 48.92     843   29.03
 48.93     877   29.61
 48.94     836   28.91
 48.95     831   28.83
 48.96     812   28.50
 48.97     813   28.51
 48.98     736   27.13
 48.99     703   26.51
 49.00     745   27.29
 49.01     727   26.96
 49.02     730   27.02
 49.03     757   27.51
 49.04     753   27.44
 49.05     737   27.15
 49.06     735   27.11
 49.07     804   28.35
 49.08     838   28.95
 49.09     909   30.15
 49.10     917   30.28
 49.11     983   31.35
 49.12    1056   32.50
 49.13    1087   32.97
 49.14    1153   33.96
 49.15    1158   34.03
 49.16    1182   34.38
 49.17    1254   35.41
 49.18    1319   36.32
 49.19    1317   36.29
 49.20    1284   35.83
 49.21    1295   35.99
 49.22    1320   36.33
 49.23    1235   35.14
 49.24    1241   35.23
 49.25    1263   35.54
 49.26    1173   34.25
 49.27    1148   33.88
 49.28    1146   33.85
 49.29    1070   32.71
 49.30    1070   32.71
 49.31    1005   31.70
 49.32    1037   32.20
 49.33     995   31.54
 49.34     962   31.02
 49.35     999   31.61
 49.36     865   29.41
 49.37     867   29.44
 49.38     806   28.39
 49.39     819   28.62
 49.40     855   29.24
 49.41     819   28.62
 49.42     805   28.37
 49.43     800   28.28
 49.44     763   27.62
 49.45     786   28.04
 49.46     754   27.46
 49.47     717   26.78
 49.48     692   26.31
 49.49     735   27.11
 49.50     721   26.85
 49.51     690   26.27
 49.52     702   26.50
 49.53     710   26.65
 49.54     654   25.57
 49.55     697   26.40
 49.56     705   26.55
 49.57     663   25.75
 49.58     655   25.59
 49.59     674   25.96
 49.60     624   24.98
 49.61     636   25.22
 49.62     639   25.28
 49.63     639   25.28
 49.64     617   24.84
 49.65     596   24.41
 49.66     624   24.98
 49.67     568   23.83
 49.68     637   25.24
 49.69     578   24.04
 49.70     557   23.60
 49.71     633   25.16
 49.72     570   23.87
 49.73     623   24.96
 49.74     616   24.82
 49.75     593   24.35
 49.76     615   24.80
 49.77     621   24.92
 49.78     656   25.61
 49.79     638   25.26
 49.80     638   25.26
 49.81     658   25.65
 49.82     698   26.42
 49.83     647   25.44
 49.84     688   26.23
 49.85     653   25.55
 49.86     671   25.90
 49.87     655   25.59
 49.88     634   25.18
 49.89     664   25.77
 49.90     673   25.94
 49.91     632   25.14
 49.92     623   24.96
 49.93     651   25.51
 49.94     665   25.79
 49.95     673   25.94
 49.96     689   26.25
 49.97     719   26.81
 49.98     721   26.85
 49.99     693   26.32
 50.00     747   27.33
END
